%OpenBCI Raw EXG Data
%Number of channels = 8
%Sample Rate = 250 Hz
%Board = OpenBCI_GUI$BoardCytonSerial
Sample Index, EXG Channel 0, EXG Channel 1, EXG Channel 2, EXG Channel 3, EXG Channel 4, EXG Channel 5, EXG Channel 6, EXG Channel 7, Accel Channel 0, Accel Channel 1, Accel Channel 2, Other, Other, Other, Other, Other, Other, Other, Analog Channel 0, Analog Channel 1, Analog Channel 2, Timestamp, Other, Timestamp (Formatted)
0.0, 13662.07911516179, 27491.841017227296, 20100.655567724178, 12337.671200951481, 31290.095304262082, 10517.36748425573, 15642.28721169081, 12808.57775313589, 0.008, -0.026000000000000002, 0.51, 192.0, 0.0, 64.0, 255.0, 48.0, 15.0, 240.0, 0.0, 0.0, 0.0, 1.711779641407532E9, 0.0, 2024-03-29 23:20:41.407
1.0, 13525.733473984417, 27491.215168382547, 19879.060373194265, 12239.502339303774, 31280.685219846397, 10467.031355742378, 15318.209268833312, 12726.055112606897, 0.008, -0.026000000000000002, 0.51, 192.0, 0.0, 0.0, 0.0, 0.0, 0.0, 0.0, 0.0, 0.0, 0.0, 1.711779641411235E9, 0.0, 2024-03-29 23:20:41.411
2.0, 13546.654706794585, 27466.404732037157, 20334.432462982233, 12362.01225066331, 31327.065089591157, 10480.97884428249, 16126.962438459688, 12833.231727270095, 0.008, -0.026000000000000002, 0.51, 192.0, 0.0, 0.0, 0.0, 0.0, 0.0, 0.0, 0.0, 0.0, 0.0, 1.7117796414142E9, 0.0, 2024-03-29 23:20:41.414
3.0, 13658.569891282308, 27459.498043000465, 20518.96846520525, 12472.787496183813, 31379.904613483504, 10517.121615066722, 16606.653226215032, 12916.6484375773, 0.008, -0.026000000000000002, 0.51, 192.0, 0.0, 0.0, 0.0, 0.0, 0.0, 0.0, 0.0, 0.0, 0.0, 1.711779641419271E9, 0.0, 2024-03-29 23:20:41.419
4.0, 13696.545505111875, 27523.625197842743, 20316.30519822898, 12389.862524254624, 31383.659706551996, 10530.309144295352, 15857.378048584229, 12862.713678206645, 0.008, -0.026000000000000002, 0.51, 192.0, 0.0, 0.0, 0.0, 0.0, 0.0, 0.0, 0.0, 0.0, 0.0, 1.711779641423321E9, 0.0, 2024-03-29 23:20:41.423
5.0, 13599.918913831581, 27528.408471156177, 20001.48087757598, 12286.038671259723, 31299.05835378866, 10480.21888497101, 15345.500748813243, 12775.72068878659, 0.008, -0.026000000000000002, 0.51, 192.0, 0.0, 0.0, 0.0, 0.0, 0.0, 0.0, 0.0, 0.0, 0.0, 1.711779641427307E9, 0.0, 2024-03-29 23:20:41.427
6.0, 13546.654706794585, 27481.693325244585, 20204.300606763438, 12378.329024115685, 31320.96306335486, 10498.860239846736, 15980.0220704105, 12820.87121258631, 0.008, -0.026000000000000002, 0.51, 192.0, 0.0, 0.0, 0.0, 0.0, 0.0, 0.0, 0.0, 0.0, 0.0, 1.711779641431281E9, 0.0, 2024-03-29 23:20:41.431
7.0, 13541.089122425214, 27423.064699538318, 20336.980561850138, 12429.31335321824, 31356.14470912751, 10523.111882580744, 16512.865306480566, 12862.40075378427, 0.01, -0.038, 0.764, 192.0, 0.0, 80.0, 254.0, 208.0, 23.0, 224.0, 0.0, 0.0, 0.0, 1.711779641434304E9, 0.0, 2024-03-29 23:20:41.434
8.0, 13576.270768197868, 27483.52616828992, 20055.72856136901, 12385.459230596929, 31364.928944698448, 10541.574423500828, 15992.851971727845, 12838.126759305807, 0.01, -0.038, 0.764, 192.0, 0.0, 0.0, 0.0, 0.0, 0.0, 0.0, 0.0, 0.0, 0.0, 1.711779641438375E9, 0.0, 2024-03-29 23:20:41.438
9.0, 13606.378567979165, 27535.851602059796, 20151.08110321535, 12299.941456310924, 31306.948519581383, 10489.092527519766, 15359.537644331176, 12786.158953447219, 0.01, -0.038, 0.764, 192.0, 0.0, 0.0, 0.0, 0.0, 0.0, 0.0, 0.0, 0.0, 0.0, 1.711779641442314E9, 0.0, 2024-03-29 23:20:41.442
10.0, 13657.631118015184, 27451.831394652298, 20072.268852265937, 12332.642058449037, 31308.4907899488, 10464.840884785759, 15757.443399124551, 12763.024897935975, 0.01, -0.038, 0.764, 192.0, 0.0, 0.0, 0.0, 0.0, 0.0, 0.0, 0.0, 0.0, 0.0, 1.71177964144638E9, 0.0, 2024-03-29 23:20:41.446
11.0, 13680.496952592965, 27433.48061245449, 20427.885106549875, 12451.41922848454, 31328.83087740313, 10486.74559435196, 16516.754510015788, 12876.482352791114, 0.01, -0.038, 0.764, 192.0, 0.0, 0.0, 0.0, 0.0, 0.0, 0.0, 0.0, 0.0, 0.0, 1.711779641451354E9, 0.0, 2024-03-29 23:20:41.451
12.0, 13519.877316937127, 27502.01106095446, 20532.893602000906, 12398.937332503478, 31357.128185883546, 10534.153644341666, 16250.254660875162, 12899.92933272473, 0.01, -0.038, 0.764, 192.0, 0.0, 0.0, 0.0, 0.0, 0.0, 0.0, 0.0, 0.0, 0.0, 1.711779641455407E9, 0.0, 2024-03-29 23:20:41.455
13.0, 13687.1801241851, 27600.291681324445, 20142.073350199862, 12370.170637389498, 31355.228287604845, 10550.157493371666, 15458.421761801454, 12855.784637425499, 0.01, -0.038, 0.764, 192.0, 0.0, 0.0, 0.0, 0.0, 0.0, 0.0, 0.0, 0.0, 0.0, 1.711779641459368E9, 0.0, 2024-03-29 23:20:41.459
14.0, 13716.058578021357, 27521.72529956404, 20089.300881540883, 12379.603073549639, 31319.91253136546, 10506.057501561345, 15713.209296847499, 12816.803195095445, 0.01, -0.038, 0.764, 192.0, 0.0, 0.0, 0.0, 0.0, 0.0, 0.0, 0.0, 0.0, 0.0, 1.711779641462615E9, 0.0, 2024-03-29 23:20:41.462
15.0, 13630.496100246442, 27421.81300184882, 20420.978417513183, 12436.421207955029, 31306.345022481088, 10471.993443011457, 16439.39512245597, 12852.297765290472, 0.01, -0.038, 0.764, 192.0, 0.0, 0.0, 0.0, 0.0, 0.0, 0.0, 0.0, 0.0, 0.0, 1.711779641466369E9, 0.0, 2024-03-29 23:20:41.466
16.0, 13562.904425013594, 27439.984970090984, 20377.437219314244, 12422.518422903828, 31326.81922040215, 10502.056539303845, 16345.674257954868, 12863.406582284759, 0.01, -0.038, 0.764, 192.0, 0.0, 0.0, 0.0, 0.0, 0.0, 0.0, 0.0, 0.0, 0.0, 1.711779641470501E9, 0.0, 2024-03-29 23:20:41.470
17.0, 13564.11141921418, 27521.658244330676, 20024.659636576132, 12307.071662792167, 31305.473304447332, 10507.17508878411, 15438.52870923623, 12784.951959246631, 0.008, -0.042, 0.896, 192.0, 0.0, 64.0, 254.0, 176.0, 28.0, 0.0, 0.0, 0.0, 0.0, 1.711779641474503E9, 0.0, 2024-03-29 23:20:41.474
18.0, 13763.265462310967, 27507.710755790566, 19997.70343276303, 12336.911241640002, 31315.553941196675, 10481.738803593971, 15571.029850367291, 12782.381508634271, 0.008, -0.042, 0.896, 192.0, 0.0, 0.0, 0.0, 0.0, 0.0, 0.0, 0.0, 0.0, 0.0, 1.711779641484677E9, 0.0, 2024-03-29 23:20:41.484
19.0, 13598.466050441988, 27450.75851091844, 20379.135951892848, 12436.063580043743, 31371.612116290584, 10497.295617734864, 16352.849167925022, 12852.096599590373, 0.008, -0.042, 0.896, 192.0, 0.0, 0.0, 0.0, 0.0, 0.0, 0.0, 0.0, 0.0, 0.0, 1.711779641484705E9, 0.0, 2024-03-29 23:20:41.484
20.0, 13544.196014904503, 27468.751665204964, 20555.893547045416, 12462.41628675655, 31388.3088693987, 10534.0865891083, 16475.381431029014, 12897.98473095712, 0.008, -0.042, 0.896, 192.0, 0.0, 0.0, 0.0, 0.0, 0.0, 0.0, 0.0, 0.0, 0.0, 1.711779641487631E9, 0.0, 2024-03-29 23:20:41.487
21.0, 13693.975054499515, 27529.391947912212, 20144.04030371193, 12367.39902107704, 31328.786173914217, 10513.053597575856, 15603.328121105209, 12819.887735830276, 0.008, -0.042, 0.896, 192.0, 0.0, 0.0, 0.0, 0.0, 0.0, 0.0, 0.0, 0.0, 0.0, 1.711779641490523E9, 0.0, 2024-03-29 23:20:41.490
22.0, 13646.65641148763, 27553.509480179488, 20034.29323843637, 12333.044389849234, 31313.72109815134, 10509.544373696372, 15529.053274280224, 12810.656465370235, 0.008, -0.042, 0.896, 192.0, 0.0, 0.0, 0.0, 0.0, 0.0, 0.0, 0.0, 0.0, 0.0, 1.711779641494446E9, 0.0, 2024-03-29 23:20:41.494
23.0, 13557.96468948897, 27464.10250235826, 20334.991256593617, 12401.753652304847, 31334.597627472598, 10501.40833871464, 16213.441337757271, 12841.501872718558, 0.008, -0.042, 0.896, 192.0, 0.0, 0.0, 0.0, 0.0, 0.0, 0.0, 0.0, 0.0, 0.0, 1.711779641498533E9, 0.0, 2024-03-29 23:20:41.498
24.0, 13568.179436705046, 27468.371685549224, 20511.927665701827, 12481.839952688213, 31368.907555211492, 10532.700780952071, 16545.99059176333, 12911.753405541589, 0.008, -0.042, 0.896, 192.0, 0.0, 0.0, 0.0, 0.0, 0.0, 0.0, 0.0, 0.0, 0.0, 1.711779641502778E9, 0.0, 2024-03-29 23:20:41.502
25.0, 13690.108202708747, 27546.960419054085, 20339.21573629567, 12389.035509709778, 31349.416834046464, 10534.757141441958, 15779.750440090947, 12858.802122926965, 0.008, -0.042, 0.896, 192.0, 0.0, 0.0, 0.0, 0.0, 0.0, 0.0, 0.0, 0.0, 0.0, 1.711779641506779E9, 0.0, 2024-03-29 23:20:41.506
26.0, 13696.2325806895, 27596.55894000041, 20119.36397783327, 12358.25715759482, 31378.563508816187, 10546.625917747728, 15486.316738881676, 12835.511605204536, 0.008, -0.042, 0.896, 192.0, 0.0, 0.0, 0.0, 0.0, 0.0, 0.0, 0.0, 0.0, 0.0, 1.711779641511581E9, 0.0, 2024-03-29 23:20:41.511
27.0, 13618.850841385227, 27495.797275995887, 20284.63277633581, 12394.466983612418, 31347.29341832321, 10508.002103328956, 16114.624275520358, 12843.40177099726, 0.008, -0.042, 0.896, 192.0, 0.0, 0.0, 0.0, 0.0, 0.0, 0.0, 0.0, 0.0, 0.0, 1.711779641515884E9, 0.0, 2024-03-29 23:20:41.515
28.0, 13684.60967357274, 27448.277467283904, 20438.748054355154, 12471.84872291669, 31357.39640681701, 10534.42186527513, 16540.804987049698, 12894.743728011099, 0.012, -0.048, 0.9540000000000001, 192.0, 0.0, 96.0, 254.0, 128.0, 29.0, 208.0, 0.0, 0.0, 0.0, 1.711779641517745E9, 0.0, 2024-03-29 23:20:41.517
29.0, 13700.747633069472, 27541.975980040548, 20270.86410175134, 12421.110263003144, 31378.78702626074, 10552.99616491749, 15952.283555541464, 12879.321024336938, 0.012, -0.048, 0.9540000000000001, 192.0, 0.0, 0.0, 0.0, 0.0, 0.0, 0.0, 0.0, 0.0, 0.0, 1.711779641522776E9, 0.0, 2024-03-29 23:20:41.522
30.0, 13641.850786429739, 27577.314088024392, 20029.062930233828, 12327.72467466887, 31338.24096181881, 10535.830025175814, 15422.256639272768, 12804.263866456016, 0.012, -0.048, 0.9540000000000001, 192.0, 0.0, 0.0, 0.0, 0.0, 0.0, 0.0, 0.0, 0.0, 0.0, 1.711779641526646E9, 0.0, 2024-03-29 23:20:41.526
31.0, 13515.42931979052, 27476.977107164515, 20107.94223641661, 12349.182349345965, 31319.37608949853, 10508.739710895981, 15926.444938951128, 12796.016072752009, 0.012, -0.048, 0.9540000000000001, 192.0, 0.0, 0.0, 0.0, 0.0, 0.0, 0.0, 0.0, 0.0, 0.0, 1.71177964153155E9, 0.0, 2024-03-29 23:20:41.531
32.0, 13657.832283715283, 27453.016037108428, 20595.2102655423, 12489.528952780838, 31357.508165539286, 10504.068196304823, 16576.724240389376, 12911.88751600832, 0.012, -0.048, 0.9540000000000001, 192.0, 0.0, 0.0, 0.0, 0.0, 0.0, 0.0, 0.0, 0.0, 0.0, 1.711779641536324E9, 0.0, 2024-03-29 23:20:41.536
33.0, 13469.116505279126, 27532.744709580507, 20495.186209104802, 12434.36484746514, 31394.299136912723, 10540.479188022517, 16149.649459081826, 12910.12172819635, 0.012, -0.048, 0.9540000000000001, 192.0, 0.0, 0.0, 0.0, 0.0, 0.0, 0.0, 0.0, 0.0, 0.0, 1.711779641539852E9, 0.0, 2024-03-29 23:20:41.539
34.0, 13794.557904548396, 27589.74165794154, 20238.364665313326, 12385.392175363562, 31381.670401295472, 10544.301336324375, 15480.01354694528, 12839.06553257293, 0.012, -0.048, 0.9540000000000001, 192.0, 0.0, 0.0, 0.0, 0.0, 0.0, 0.0, 0.0, 0.0, 0.0, 1.711779641542793E9, 0.0, 2024-03-29 23:20:41.542
35.0, 13683.80501077235, 27535.963360782072, 20259.978802201607, 12399.764347048325, 31387.235985664844, 10543.116693868244, 15858.920318951647, 12841.993611096575, 0.012, -0.048, 0.9540000000000001, 192.0, 0.0, 0.0, 0.0, 0.0, 0.0, 0.0, 0.0, 0.0, 0.0, 1.711779641545906E9, 0.0, 2024-03-29 23:20:41.545
36.0, 13647.930460921581, 27452.4795952415, 20389.93184446476, 12452.670926174036, 31369.376941845054, 10527.761045427447, 16432.421378185914, 12871.87789343332, 0.012, -0.048, 0.9540000000000001, 192.0, 0.0, 0.0, 0.0, 0.0, 0.0, 0.0, 0.0, 0.0, 0.0, 1.711779641550995E9, 0.0, 2024-03-29 23:20:41.550
37.0, 13682.03922296038, 27505.63204355622, 20356.69480045972, 12450.681620917514, 31355.54121202722, 10551.789170716902, 16249.360591096949, 12896.531867567524, 0.012, -0.048, 0.9540000000000001, 192.0, 0.0, 0.0, 0.0, 0.0, 0.0, 0.0, 0.0, 0.0, 0.0, 1.711779641555034E9, 0.0, 2024-03-29 23:20:41.555
38.0, 13757.856340152783, 27606.728983727575, 20203.65240617423, 12382.732317773382, 31349.908572424483, 10552.392667817196, 15567.40886776553, 12853.348297279872, 0.014, -0.046, 0.986, 192.0, 0.0, 112.0, 254.0, 144.0, 30.0, 208.0, 0.0, 0.0, 0.0, 1.711779641559577E9, 0.0, 2024-03-29 23:20:41.559
39.0, 13683.581493327796, 27530.889514790717, 20127.120033159263, 12373.389288591063, 31332.742432682808, 10518.37331275622, 15709.811831690293, 12804.710901345123, 0.014, -0.046, 0.986, 192.0, 0.0, 0.0, 0.0, 0.0, 0.0, 0.0, 0.0, 0.0, 0.0, 1.71177964156326E9, 0.0, 2024-03-29 23:20:41.563
40.0, 13537.065808423258, 27439.00149333495, 20390.356527609412, 12415.74584433387, 31346.06407237817, 10503.956437582545, 16342.053275353108, 12841.703038418656, 0.014, -0.046, 0.986, 192.0, 0.0, 0.0, 0.0, 0.0, 0.0, 0.0, 0.0, 0.0, 0.0, 1.711779641566895E9, 0.0, 2024-03-29 23:20:41.566
41.0, 13529.242697863901, 27483.973203179026, 20462.329144755502, 12445.920699348533, 31390.812264777695, 10551.766818972448, 16343.61789746498, 12891.234504131617, 0.014, -0.046, 0.986, 192.0, 0.0, 0.0, 0.0, 0.0, 0.0, 0.0, 0.0, 0.0, 0.0, 1.711779641570823E9, 0.0, 2024-03-29 23:20:41.570
42.0, 13699.786508057894, 27598.23532083456, 20126.27066686996, 12390.60013182165, 31383.838520507637, 10574.856170994779, 15640.588479112206, 12858.489198504592, 0.014, -0.046, 0.986, 192.0, 0.0, 0.0, 0.0, 0.0, 0.0, 0.0, 0.0, 0.0, 0.0, 1.711779641573809E9, 0.0, 2024-03-29 23:20:41.573
43.0, 13708.458984906554, 27535.851602059796, 20144.28617290094, 12351.663392980505, 31318.57142669814, 10527.470472749528, 15652.837235073715, 12800.48642164307, 0.014, -0.046, 0.986, 192.0, 0.0, 0.0, 0.0, 0.0, 0.0, 0.0, 0.0, 0.0, 0.0, 1.711779641577883E9, 0.0, 2024-03-29 23:20:41.577
44.0, 13499.246656804879, 27450.646752196164, 20262.23632839159, 12389.21432366542, 31333.927075138938, 10513.612391187238, 16243.191509627284, 12828.984895823587, 0.014, -0.046, 0.986, 192.0, 0.0, 0.0, 0.0, 0.0, 0.0, 0.0, 0.0, 0.0, 0.0, 1.711779641582834E9, 0.0, 2024-03-29 23:20:41.582
45.0, 13536.261145622868, 27456.56996447682, 20428.33214143898, 12441.27153650183, 31374.87547098106, 10529.213908817042, 16387.069688686097, 12873.442515545192, 0.014, -0.046, 0.986, 192.0, 0.0, 0.0, 0.0, 0.0, 0.0, 0.0, 0.0, 0.0, 0.0, 1.71177964158701E9, 0.0, 2024-03-29 23:20:41.587
46.0, 13738.812653876861, 27585.338364283845, 20499.25422659567, 12416.528155389806, 31374.607250047597, 10547.296470081386, 15791.306291974342, 12883.903131950276, 0.014, -0.046, 0.986, 192.0, 0.0, 0.0, 0.0, 0.0, 0.0, 0.0, 0.0, 0.0, 0.0, 1.711779641590975E9, 0.0, 2024-03-29 23:20:41.590
47.0, 13864.518864693508, 27558.44921570411, 20212.615455700812, 12386.30859688623, 31328.62971170303, 10513.478280720507, 15615.37571136662, 12821.139433519773, 0.014, -0.046, 0.986, 192.0, 0.0, 0.0, 0.0, 0.0, 0.0, 0.0, 0.0, 0.0, 0.0, 1.711779641594969E9, 0.0, 2024-03-29 23:20:41.594
48.0, 13641.023771884891, 27474.965450163538, 20228.172269841703, 12400.144326704065, 31357.508165539286, 10516.562821455338, 16099.38038580184, 12825.498023688559, 0.018000000000000002, -0.054, 1.0, 192.0, 0.0, 144.0, 254.0, 80.0, 31.0, 64.0, 0.0, 0.0, 0.0, 1.71177964159791E9, 0.0, 2024-03-29 23:20:41.597
49.0, 13527.163985629557, 27443.18126954809, 20407.723833051186, 12416.818728067725, 31388.174758931968, 10536.142949598188, 16389.95306372083, 12865.39588754128, 0.018000000000000002, -0.054, 1.0, 192.0, 0.0, 0.0, 0.0, 0.0, 0.0, 0.0, 0.0, 0.0, 0.0, 1.711779641601939E9, 0.0, 2024-03-29 23:20:41.601
50.0, 13637.872175916693, 27535.203401470593, 20290.667747338743, 12400.278437170797, 31386.185453675447, 10549.866920693747, 15885.921226253657, 12855.784637425499, 0.018000000000000002, -0.054, 1.0, 192.0, 0.0, 0.0, 0.0, 0.0, 0.0, 0.0, 0.0, 0.0, 0.0, 1.711779641605973E9, 0.0, 2024-03-29 23:20:41.605
51.0, 13721.579458901819, 27545.038169030926, 20108.389271305714, 12360.87231169609, 31349.282723579734, 10511.93601035309, 15563.117332830112, 12792.998587250542, 0.018000000000000002, -0.054, 1.0, 192.0, 0.0, 0.0, 0.0, 0.0, 0.0, 0.0, 0.0, 0.0, 0.0, 1.71177964161113E9, 0.0, 2024-03-29 23:20:41.611
52.0, 13553.96372723147, 27450.512641729434, 20250.16638638573, 12350.501102268829, 31307.4402579594, 10466.919597020102, 15997.791707252469, 12787.05302322543, 0.018000000000000002, -0.054, 1.0, 192.0, 0.0, 0.0, 0.0, 0.0, 0.0, 0.0, 0.0, 0.0, 0.0, 1.711779641614992E9, 0.0, 2024-03-29 23:20:41.614
53.0, 13566.748925059906, 27401.383507416667, 20432.020179274106, 12407.0286639963, 31306.076801547624, 10469.69121333256, 16390.176581165386, 12838.193814539172, 0.018000000000000002, -0.054, 1.0, 192.0, 0.0, 0.0, 0.0, 0.0, 0.0, 0.0, 0.0, 0.0, 0.0, 1.711779641619048E9, 0.0, 2024-03-29 23:20:41.619
54.0, 13557.383544133132, 27450.289124284882, 20263.644488292277, 12346.500140011329, 31284.753237337263, 10481.448230916052, 15935.810319877903, 12794.518505873502, 0.018000000000000002, -0.054, 1.0, 192.0, 0.0, 0.0, 0.0, 0.0, 0.0, 0.0, 0.0, 0.0, 0.0, 1.711779641623066E9, 0.0, 2024-03-29 23:20:41.623
55.0, 13656.804103470338, 27549.910849322183, 20213.241304545558, 12331.122139826077, 31295.929109564917, 10494.278132233398, 15586.94429241947, 12797.513639630513, 0.018000000000000002, -0.054, 1.0, 192.0, 0.0, 0.0, 0.0, 0.0, 0.0, 0.0, 0.0, 0.0, 0.0, 1.711779641626123E9, 0.0, 2024-03-29 23:20:41.626
56.0, 13661.140341894668, 27530.64364560171, 20294.422840407235, 12419.009199024344, 31345.86290667807, 10528.923336139123, 15962.185378335165, 12845.905166376253, 0.018000000000000002, -0.054, 1.0, 192.0, 0.0, 0.0, 0.0, 0.0, 0.0, 0.0, 0.0, 0.0, 0.0, 1.711779641630072E9, 0.0, 2024-03-29 23:20:41.630
57.0, 13394.84165845414, 27441.5272404584, 20432.981304285684, 12412.907172788046, 31343.49362176581, 10512.65126617566, 16378.91130195991, 12861.909015406254, 0.018000000000000002, -0.054, 1.0, 192.0, 0.0, 0.0, 0.0, 0.0, 0.0, 0.0, 0.0, 0.0, 0.0, 1.711779641634047E9, 0.0, 2024-03-29 23:20:41.634
58.0, 13736.331610242321, 27487.57183403633, 20428.37684492789, 12430.36388520764, 31337.39159552951, 10530.644420462182, 16137.355999631405, 12870.201512599173, 0.018000000000000002, -0.054, 1.0, 192.0, 0.0, 0.0, 0.0, 0.0, 0.0, 0.0, 0.0, 0.0, 0.0, 1.711779641638103E9, 0.0, 2024-03-29 23:20:41.638
59.0, 13639.79442593985, 27560.103244793805, 19999.268054874905, 12339.280526552264, 31368.862851722584, 10540.769760700436, 15565.263100297821, 12798.184191964174, 0.016, -0.05, 1.008, 192.0, 0.0, 128.0, 254.0, 112.0, 31.0, 128.0, 0.0, 0.0, 0.0, 1.711779641643126E9, 0.0, 2024-03-29 23:20:41.643
60.0, 13784.276102098955, 27485.023735168426, 20193.974100825086, 12374.149247902544, 31338.129203096534, 10483.83986757277, 15807.958341593545, 12785.466049369103, 0.016, -0.05, 1.008, 192.0, 0.0, 0.0, 0.0, 0.0, 0.0, 0.0, 0.0, 0.0, 0.0, 1.711779641647106E9, 0.0, 2024-03-29 23:20:41.647
61.0, 13634.072379359292, 27443.4271387371, 20533.78767177912, 12431.906155575056, 31330.350796026087, 10494.501649677952, 16355.732542959757, 12864.814742185443, 0.016, -0.05, 1.008, 192.0, 0.0, 0.0, 0.0, 0.0, 0.0, 0.0, 0.0, 0.0, 0.0, 1.711779641650148E9, 0.0, 2024-03-29 23:20:41.650
62.0, 13624.818757154795, 27467.365857048735, 20453.880185351394, 12417.981018779401, 31346.73462471183, 10543.340211312796, 16213.575448224003, 12864.367707296338, 0.016, -0.05, 1.008, 192.0, 0.0, 0.0, 0.0, 0.0, 0.0, 0.0, 0.0, 0.0, 0.0, 1.711779641654159E9, 0.0, 2024-03-29 23:20:41.654
63.0, 13666.70592626404, 27527.335587422323, 20262.10221792486, 12345.516663255295, 31297.158455509958, 10499.039053802378, 15672.171494027556, 12798.653578597734, 0.016, -0.05, 1.008, 192.0, 0.0, 0.0, 0.0, 0.0, 0.0, 0.0, 0.0, 0.0, 0.0, 1.711779641658153E9, 0.0, 2024-03-29 23:20:41.658
64.0, 13632.328943291777, 27497.04897368538, 20159.105379474804, 12334.139625327543, 31292.799865341174, 10472.887512789668, 15737.25977388141, 12773.686680041157, 0.016, -0.05, 1.008, 192.0, 0.0, 0.0, 0.0, 0.0, 0.0, 0.0, 0.0, 0.0, 0.0, 1.711779641662748E9, 0.0, 2024-03-29 23:20:41.662
65.0, 13501.235962061402, 27426.90919958463, 20279.71539255564, 12373.702213013437, 31343.02423513225, 10500.469565447518, 16220.236268071685, 12808.913029302721, 0.016, -0.05, 1.008, 192.0, 0.0, 0.0, 0.0, 0.0, 0.0, 0.0, 0.0, 0.0, 0.0, 1.711779641666232E9, 0.0, 2024-03-29 23:20:41.666
66.0, 13441.735618321374, 27455.67589469861, 20582.02273631367, 12398.132669703087, 31392.77921828976, 10508.65030391816, 16319.098033797507, 12870.760306210555, 0.016, -0.05, 1.008, 192.0, 0.0, 0.0, 0.0, 0.0, 0.0, 0.0, 0.0, 0.0, 0.0, 1.711779641670223E9, 0.0, 2024-03-29 23:20:41.670
67.0, 13661.587376783775, 27519.87010477425, 20225.937095396173, 12352.535111014262, 31331.423679759944, 10490.03130078689, 15753.867120011702, 12807.594276379858, 0.016, -0.05, 1.008, 192.0, 0.0, 0.0, 0.0, 0.0, 0.0, 0.0, 0.0, 0.0, 0.0, 1.711779641675392E9, 0.0, 2024-03-29 23:20:41.675
68.0, 13725.938049070604, 27515.802087283384, 20193.4153072137, 12371.422335078996, 31311.75414463927, 10479.749498337449, 15737.483291325963, 12790.897523271744, 0.016, -0.05, 1.008, 192.0, 0.0, 0.0, 0.0, 0.0, 0.0, 0.0, 0.0, 0.0, 0.0, 1.711779641678283E9, 0.0, 2024-03-29 23:20:41.678
69.0, 13555.975384232448, 27426.015129806416, 20304.279959712025, 12375.803276992236, 31325.142839568, 10472.462829645017, 16142.09456945593, 12801.022863509997, 0.012, -0.046, 1.014, 192.0, 0.0, 96.0, 254.0, 144.0, 31.0, 176.0, 0.0, 0.0, 0.0, 1.711779641682263E9, 0.0, 2024-03-29 23:20:41.682
70.0, 13306.373453900034, 27413.095821511248, 20382.444010072235, 12357.743067472347, 31332.58597047162, 10493.540524666372, 16291.761850328667, 12829.096654545863, 0.012, -0.046, 1.014, 192.0, 0.0, 0.0, 0.0, 0.0, 0.0, 0.0, 0.0, 0.0, 0.0, 1.71177964168643E9, 0.0, 2024-03-29 23:20:41.686
71.0, 13769.412192036176, 27526.530924621933, 20316.081680784428, 12390.108393443632, 31327.2439035468, 10491.327701965298, 15837.730865208016, 12838.931422106198, 0.012, -0.046, 1.014, 192.0, 0.0, 0.0, 0.0, 0.0, 0.0, 0.0, 0.0, 0.0, 0.0, 1.711779641690397E9, 0.0, 2024-03-29 23:20:41.690
72.0, 13747.440427236608, 27527.201476955594, 20188.90025483373, 12362.816913463703, 31304.445124202386, 10461.30930916182, 15704.402709532109, 12794.831430295877, 0.012, -0.046, 1.014, 192.0, 0.0, 0.0, 0.0, 0.0, 0.0, 0.0, 0.0, 0.0, 0.0, 1.711779641694608E9, 0.0, 2024-03-29 23:20:41.694
73.0, 13597.504925430409, 27402.746963828442, 20225.266543062513, 12341.046314364234, 31259.38400738049, 10418.326904574264, 16026.871326788823, 12754.7100489986, 0.012, -0.046, 1.014, 192.0, 0.0, 0.0, 0.0, 0.0, 0.0, 0.0, 0.0, 0.0, 0.0, 1.711779641698313E9, 0.0, 2024-03-29 23:20:41.698
74.0, 13566.25718668189, 27404.691565596055, 20348.201137566703, 12389.013157965323, 31290.229414728812, 10449.194663667044, 16275.556835598569, 12827.509680689536, 0.012, -0.046, 1.014, 192.0, 0.0, 0.0, 0.0, 0.0, 0.0, 0.0, 0.0, 0.0, 0.0, 1.711779641703542E9, 0.0, 2024-03-29 23:20:41.703
75.0, 13608.16670753559, 27465.86829017023, 20233.782557699986, 12357.787770961259, 31276.81836805563, 10460.526998105885, 15893.073784479355, 12793.847953539844, 0.012, -0.046, 1.014, 192.0, 0.0, 0.0, 0.0, 0.0, 0.0, 0.0, 0.0, 0.0, 0.0, 1.711779641706361E9, 0.0, 2024-03-29 23:20:41.706
76.0, 13587.714861358985, 27523.06640423136, 20099.806201434876, 12316.459395463395, 31303.595757913085, 10468.864198787714, 15616.292132889288, 12764.880092725765, 0.012, -0.046, 1.014, 192.0, 0.0, 0.0, 0.0, 0.0, 0.0, 0.0, 0.0, 0.0, 0.0, 1.711779641709383E9, 0.0, 2024-03-29 23:20:41.709
77.0, 13572.359212918189, 27466.62824948171, 20276.697907054175, 12356.737238971858, 31302.992260812793, 10457.956547493524, 16000.943303220667, 12797.692453586156, 0.012, -0.046, 1.014, 192.0, 0.0, 0.0, 0.0, 0.0, 0.0, 0.0, 0.0, 0.0, 0.0, 1.711779641714395E9, 0.0, 2024-03-29 23:20:41.714
78.0, 13538.786892746317, 27402.65755685062, 20442.413740445823, 12374.909207214023, 31303.372240468532, 10455.1178759477, 16294.332300941027, 12831.82356736941, 0.012, -0.046, 1.014, 192.0, 0.0, 0.0, 0.0, 0.0, 0.0, 0.0, 0.0, 0.0, 0.0, 1.711779641718562E9, 0.0, 2024-03-29 23:20:41.718
79.0, 13550.4992068409, 27496.19960739608, 20322.45192795419, 12384.632216052081, 31336.341063540112, 10487.304387963342, 16003.938436977678, 12841.032486084996, 0.012, -0.052000000000000005, 1.02, 192.0, 0.0, 96.0, 254.0, 96.0, 31.0, 224.0, 0.0, 0.0, 0.0, 1.711779641722421E9, 0.0, 2024-03-29 23:20:41.722
80.0, 13688.543580596875, 27550.156718511193, 20175.869187816286, 12356.40196280503, 31316.0903830636, 10457.464809115507, 15673.333784739232, 12805.426157167693, 0.012, -0.052000000000000005, 1.02, 192.0, 0.0, 0.0, 0.0, 0.0, 0.0, 0.0, 0.0, 0.0, 0.0, 1.71177964172646E9, 0.0, 2024-03-29 23:20:41.726
81.0, 13624.438777499054, 27433.011225820926, 20145.09083570133, 12318.53810769774, 31256.388873623477, 10404.357064289698, 15871.794923757903, 12752.072543152875, 0.012, -0.052000000000000005, 1.02, 192.0, 0.0, 0.0, 0.0, 0.0, 0.0, 0.0, 0.0, 0.0, 0.0, 1.711779641731453E9, 0.0, 2024-03-29 23:20:41.731
82.0, 13614.291085516345, 27399.6177196047, 20411.52362960859, 12382.441745095462, 31312.558807439666, 10474.608597112727, 16276.137980954407, 12822.324075975905, 0.012, -0.052000000000000005, 1.02, 192.0, 0.0, 0.0, 0.0, 0.0, 0.0, 0.0, 0.0, 0.0, 0.0, 1.711779641734498E9, 0.0, 2024-03-29 23:20:41.734
83.0, 13630.183175824068, 27453.66423769763, 20370.55288202201, 12377.144381659555, 31331.311921037668, 10500.290751491875, 16096.161734600275, 12835.466901715625, 0.012, -0.052000000000000005, 1.02, 192.0, 0.0, 0.0, 0.0, 0.0, 0.0, 0.0, 0.0, 0.0, 0.0, 1.711779641737614E9, 0.0, 2024-03-29 23:20:41.737
84.0, 13558.881111011638, 27497.406601596667, 20024.659636576132, 12304.43415694644, 31281.71340009134, 10462.337489406764, 15624.651685315572, 12754.553586787413, 0.012, -0.052000000000000005, 1.02, 192.0, 0.0, 0.0, 0.0, 0.0, 0.0, 0.0, 0.0, 0.0, 0.0, 1.711779641742571E9, 0.0, 2024-03-29 23:20:41.742
85.0, 13544.933622471526, 27457.888717399685, 20163.12869347676, 12317.331113497152, 31253.729016033296, 10427.714637245494, 15809.858239872246, 12754.777104231967, 0.012, -0.052000000000000005, 1.02, 192.0, 0.0, 0.0, 0.0, 0.0, 0.0, 0.0, 0.0, 0.0, 0.0, 1.711779641746755E9, 0.0, 2024-03-29 23:20:41.746
86.0, 13625.243440299446, 27405.38446967417, 20421.291341935557, 12365.677936753982, 31282.898042547473, 10401.831317166248, 16223.253753573152, 12815.484442172581, 0.012, -0.052000000000000005, 1.02, 192.0, 0.0, 0.0, 0.0, 0.0, 0.0, 0.0, 0.0, 0.0, 0.0, 1.711779641750523E9, 0.0, 2024-03-29 23:20:41.750
87.0, 13564.78197154784, 27409.76541158741, 20302.82709632243, 12366.616710021104, 31273.107978476048, 10427.02173316738, 16129.04115069403, 12814.232744483084, 0.012, -0.052000000000000005, 1.02, 192.0, 0.0, 0.0, 0.0, 0.0, 0.0, 0.0, 0.0, 0.0, 0.0, 1.711779641754603E9, 0.0, 2024-03-29 23:20:41.754
88.0, 13604.076338300269, 27478.429970554113, 19997.34580485175, 12301.640188889527, 31265.91071676144, 10426.574698278273, 15666.248281746899, 12749.792665218434, 0.012, -0.052000000000000005, 1.02, 192.0, 0.0, 0.0, 0.0, 0.0, 0.0, 0.0, 0.0, 0.0, 0.0, 1.71177964175858E9, 0.0, 2024-03-29 23:20:41.758
89.0, 13505.996883630381, 27459.29687730037, 20188.319109477892, 12272.292348419709, 31222.235408095767, 10380.395994233608, 15745.93225073007, 12739.175586602163, 0.012, -0.05, 1.024, 192.0, 0.0, 96.0, 254.0, 112.0, 32.0, 0.0, 0.0, 0.0, 0.0, 1.711779641762691E9, 0.0, 2024-03-29 23:20:41.762
90.0, 13496.072709092226, 27378.85294900572, 20317.243971496104, 12316.034712318744, 31242.061405427627, 10386.833296636736, 16115.294827854017, 12767.025860193475, 0.012, -0.05, 1.024, 192.0, 0.0, 0.0, 0.0, 0.0, 0.0, 0.0, 0.0, 0.0, 0.0, 1.711779641765693E9, 0.0, 2024-03-29 23:20:41.765
91.0, 13550.163930674069, 27389.60413808872, 20322.161355276272, 12353.228015092376, 31310.34598473859, 10460.325832405786, 16161.317069687495, 12802.229857710583, 0.012, -0.05, 1.024, 192.0, 0.0, 0.0, 0.0, 0.0, 0.0, 0.0, 0.0, 0.0, 0.0, 1.7117796417698E9, 0.0, 2024-03-29 23:20:41.769
92.0, 13542.206709647979, 27513.231636671026, 20138.60882980929, 12349.182349345965, 31340.52083975325, 10511.377216741708, 15787.372384950208, 12804.979122278586, 0.012, -0.05, 1.024, 192.0, 0.0, 0.0, 0.0, 0.0, 0.0, 0.0, 0.0, 0.0, 0.0, 1.71177964177466E9, 0.0, 2024-03-29 23:20:41.774
93.0, 13657.005269170437, 27548.189764999126, 20131.389216350224, 12345.047276621734, 31344.365339799566, 10527.962211127546, 15754.649431067639, 12808.175421735696, 0.012, -0.05, 1.024, 192.0, 0.0, 0.0, 0.0, 0.0, 0.0, 0.0, 0.0, 0.0, 0.0, 1.711779641778723E9, 0.0, 2024-03-29 23:20:41.778
94.0, 13645.427065542588, 27443.76241490393, 20197.885656104765, 12347.371858045086, 31303.77457186873, 10458.35887889372, 16041.757588596058, 12797.379529163782, 0.012, -0.05, 1.024, 192.0, 0.0, 0.0, 0.0, 0.0, 0.0, 0.0, 0.0, 0.0, 0.0, 1.711779641782756E9, 0.0, 2024-03-29 23:20:41.782
95.0, 13573.029765251847, 27419.935455314575, 20386.5120275631, 12384.319291629708, 31307.90964459296, 10478.542504136862, 16220.504489005149, 12836.226861027106, 0.012, -0.05, 1.024, 192.0, 0.0, 0.0, 0.0, 0.0, 0.0, 0.0, 0.0, 0.0, 0.0, 1.711779641785674E9, 0.0, 2024-03-29 23:20:41.785
96.0, 13543.212538148468, 27512.605787826276, 20250.993400930573, 12339.481692252362, 31303.036964301704, 10522.195461058076, 15864.798827743392, 12815.685607872678, 0.012, -0.05, 1.024, 192.0, 0.0, 0.0, 0.0, 0.0, 0.0, 0.0, 0.0, 0.0, 0.0, 1.711779641789686E9, 0.0, 2024-03-29 23:20:41.789
97.0, 13631.323114791288, 27520.093622218803, 20014.221371915504, 12340.912203897502, 31285.110865248545, 10495.283960733886, 15706.995511888923, 12769.95393871712, 0.012, -0.05, 1.024, 192.0, 0.0, 0.0, 0.0, 0.0, 0.0, 0.0, 0.0, 0.0, 0.0, 1.711779641793769E9, 0.0, 2024-03-29 23:20:41.793
98.0, 13644.264774830912, 27415.778030845886, 20164.42509465517, 12322.762587399791, 31292.129313007514, 10431.134454147155, 15944.482796726561, 12752.005487919509, 0.012, -0.05, 1.024, 192.0, 0.0, 0.0, 0.0, 0.0, 0.0, 0.0, 0.0, 0.0, 0.0, 1.711779641797787E9, 0.0, 2024-03-29 23:20:41.797
99.0, 13511.763633699851, 27371.387466357646, 20335.25947752708, 12333.200852060421, 31291.86109207405, 10440.298669373831, 16187.490962444659, 12787.410651136715, 0.012, -0.05, 1.024, 192.0, 0.0, 0.0, 0.0, 0.0, 0.0, 0.0, 0.0, 0.0, 0.0, 1.711779641801798E9, 0.0, 2024-03-29 23:20:41.801
100.0, 13545.917099227561, 27487.21420612505, 20229.8262989314, 12356.312555827208, 31304.601586413573, 10474.943873279557, 15953.9152328867, 12818.34546546286, 0.014, -0.048, 1.026, 192.0, 0.0, 112.0, 254.0, 128.0, 32.0, 16.0, 0.0, 0.0, 0.0, 1.711779641806912E9, 0.0, 2024-03-29 23:20:41.806
101.0, 13638.542728250353, 27511.26468315896, 20062.21056726105, 12317.62168617507, 31293.202196741368, 10484.778640839892, 15672.976156827946, 12756.118208899285, 0.014, -0.048, 1.026, 192.0, 0.0, 0.0, 0.0, 0.0, 0.0, 0.0, 0.0, 0.0, 0.0, 1.711779641810973E9, 0.0, 2024-03-29 23:20:41.810
102.0, 13545.2465468939, 27461.263830812437, 20195.494019448044, 12318.761625142291, 31330.417851259455, 10505.945742839069, 15947.500282228028, 12775.944206231143, 0.014, -0.048, 1.026, 192.0, 0.0, 0.0, 0.0, 0.0, 0.0, 0.0, 0.0, 0.0, 0.0, 1.711779641813857E9, 0.0, 2024-03-29 23:20:41.813
103.0, 13503.895819651583, 27411.844123821753, 20284.00692749106, 12371.310576356718, 31350.981456158337, 10512.22658303101, 16221.957352394744, 12819.820680596911, 0.014, -0.048, 1.026, 192.0, 0.0, 0.0, 0.0, 0.0, 0.0, 0.0, 0.0, 0.0, 0.0, 1.711779641817944E9, 0.0, 2024-03-29 23:20:41.817
104.0, 13590.799402093817, 27487.840054969794, 20289.952491516175, 12390.935407988478, 31336.4975257513, 10531.069103606833, 16047.770207854535, 12843.11119831934, 0.014, -0.048, 1.026, 192.0, 0.0, 0.0, 0.0, 0.0, 0.0, 0.0, 0.0, 0.0, 0.0, 1.711779641821854E9, 0.0, 2024-03-29 23:20:41.821
105.0, 13704.256856948956, 27526.240351944012, 20071.285375509906, 12349.987012146355, 31287.52485364972, 10505.31989399432, 15725.145128386634, 12784.929607502176, 0.014, -0.048, 1.026, 192.0, 0.0, 0.0, 0.0, 0.0, 0.0, 0.0, 0.0, 0.0, 0.0, 1.711779641825869E9, 0.0, 2024-03-29 23:20:41.825
106.0, 13555.371887132156, 27472.886737929195, 20043.59156412978, 12324.126043811566, 31301.941728823393, 10480.934140793579, 15880.489752351017, 12768.18815090515, 0.014, -0.048, 1.026, 192.0, 0.0, 0.0, 0.0, 0.0, 0.0, 0.0, 0.0, 0.0, 0.0, 1.711779641829954E9, 0.0, 2024-03-29 23:20:41.829
107.0, 13572.381564662644, 27394.61092884671, 20278.195473932683, 12351.037544135756, 31309.496618449288, 10462.87393127369, 16181.34423271945, 12796.708976830123, 0.014, -0.048, 1.026, 192.0, 0.0, 0.0, 0.0, 0.0, 0.0, 0.0, 0.0, 0.0, 0.0, 1.711779641834825E9, 0.0, 2024-03-29 23:20:41.834
108.0, 13566.123076215157, 27423.48938268297, 20326.139965789316, 12360.671145995993, 31285.759065837752, 10467.344280164752, 16076.693365179703, 12808.667160113711, 0.014, -0.048, 1.026, 192.0, 0.0, 0.0, 0.0, 0.0, 0.0, 0.0, 0.0, 0.0, 0.0, 1.711779641839026E9, 0.0, 2024-03-29 23:20:41.839
109.0, 13582.3057392008, 27487.907110203163, 20053.538090412392, 12322.695532166426, 31263.496728360264, 10465.086753974767, 15720.093634139734, 12753.167778631185, 0.014, -0.048, 1.026, 192.0, 0.0, 0.0, 0.0, 0.0, 0.0, 0.0, 0.0, 0.0, 0.0, 1.711779641841876E9, 0.0, 2024-03-29 23:20:41.841
110.0, 13566.033669237337, 27451.965505119028, 20084.607015205267, 12303.137755768032, 31262.781472537696, 10445.663088043106, 15816.675521931116, 12737.722723212568, 0.01, -0.052000000000000005, 1.016, 192.0, 0.0, 80.0, 254.0, 96.0, 31.0, 192.0, 0.0, 0.0, 0.0, 1.711779641845929E9, 0.0, 2024-03-29 23:20:41.845
111.0, 13344.460826451877, 27397.449600392534, 20249.24996486306, 12304.925895324457, 31326.930979124427, 10450.982803223467, 16126.917734970777, 12779.229912666073, 0.01, -0.052000000000000005, 1.016, 192.0, 0.0, 0.0, 0.0, 0.0, 0.0, 0.0, 0.0, 0.0, 0.0, 1.711779641849926E9, 0.0, 2024-03-29 23:20:41.849
112.0, 13453.917319049517, 27419.734289614476, 20301.240122466104, 12337.715904440392, 31329.836705903617, 10475.681480846582, 16143.592136334437, 12815.327979961394, 0.01, -0.052000000000000005, 1.016, 192.0, 0.0, 0.0, 0.0, 0.0, 0.0, 0.0, 0.0, 0.0, 0.0, 1.711779641853995E9, 0.0, 2024-03-29 23:20:41.853
113.0, 13813.243962913033, 27515.623273327743, 20023.989084242476, 12380.474791583394, 31284.66383035944, 10483.50459140594, 15790.41222219613, 12799.972331520597, 0.01, -0.052000000000000005, 1.016, 192.0, 0.0, 0.0, 0.0, 0.0, 0.0, 0.0, 0.0, 0.0, 0.0, 1.711779641858033E9, 0.0, 2024-03-29 23:20:41.858
114.0, 13647.058742887824, 27478.877005443217, 19947.903746116608, 12320.885040865547, 31285.647307115476, 10458.850617271735, 15767.278166684888, 12749.367982073783, 0.01, -0.052000000000000005, 1.016, 192.0, 0.0, 0.0, 0.0, 0.0, 0.0, 0.0, 0.0, 0.0, 0.0, 1.711779641861998E9, 0.0, 2024-03-29 23:20:41.861
115.0, 13504.566371985242, 27405.920911541096, 20241.04687464796, 12322.650828677515, 31302.254653245767, 10448.613518311206, 16082.884798393823, 12781.398031878238, 0.01, -0.052000000000000005, 1.016, 192.0, 0.0, 0.0, 0.0, 0.0, 0.0, 0.0, 0.0, 0.0, 0.0, 1.711779641867002E9, 0.0, 2024-03-29 23:20:41.867
116.0, 13363.191588305424, 27399.4165539046, 20253.87677596531, 12328.529337469261, 31310.502446949777, 10467.388983653664, 16129.264668138585, 12801.983988521575, 0.01, -0.052000000000000005, 1.016, 192.0, 0.0, 0.0, 0.0, 0.0, 0.0, 0.0, 0.0, 0.0, 0.0, 1.711779641870061E9, 0.0, 2024-03-29 23:20:41.870
117.0, 13669.879873976693, 27500.11116267576, 20190.643690901245, 12366.750820487836, 31296.443199687386, 10465.64554758615, 15857.132179395221, 12807.683683357678, 0.01, -0.052000000000000005, 1.016, 192.0, 0.0, 0.0, 0.0, 0.0, 0.0, 0.0, 0.0, 0.0, 0.0, 1.7117796418741E9, 0.0, 2024-03-29 23:20:41.874
118.0, 13710.269476207433, 27489.941118948595, 20039.098863494262, 12340.465169008396, 31264.23433592729, 10439.650468784628, 15757.622213080194, 12763.091953169342, 0.01, -0.052000000000000005, 1.016, 192.0, 0.0, 0.0, 0.0, 0.0, 0.0, 0.0, 0.0, 0.0, 0.0, 1.711779641878257E9, 0.0, 2024-03-29 23:20:41.878
119.0, 13512.657703478064, 27394.163893957604, 20169.767161579988, 12303.62949414605, 31261.44036787038, 10413.610686494194, 15992.896675216756, 12747.289269839439, 0.01, -0.052000000000000005, 1.016, 192.0, 0.0, 0.0, 0.0, 0.0, 0.0, 0.0, 0.0, 0.0, 0.0, 1.711779641882085E9, 0.0, 2024-03-29 23:20:41.882
120.0, 13512.05420637777, 27364.190204643037, 20237.67176123521, 12326.718846168382, 31285.42378967092, 10421.947887176024, 16136.081950197453, 12779.408726621716, 0.002, -0.056, 1.014, 192.0, 0.0, 16.0, 254.0, 64.0, 31.0, 176.0, 0.0, 0.0, 0.0, 1.711779641886126E9, 0.0, 2024-03-29 23:20:41.886
121.0, 13550.387448118621, 27447.428100994603, 20082.617709948747, 12318.96279084239, 31255.29363814517, 10447.428875855074, 15854.338211338309, 12758.733363000556, 0.002, -0.056, 1.014, 192.0, 0.0, 0.0, 0.0, 0.0, 0.0, 0.0, 0.0, 0.0, 0.0, 1.711779641890159E9, 0.0, 2024-03-29 23:20:41.890
122.0, 13561.272747668356, 27517.992558240006, 20048.48659616549, 12321.53324145475, 31270.00108599676, 10473.155733723133, 15766.45115214004, 12757.034630421953, 0.002, -0.056, 1.014, 192.0, 0.0, 0.0, 0.0, 0.0, 0.0, 0.0, 0.0, 0.0, 0.0, 1.711779641895235E9, 0.0, 2024-03-29 23:20:41.895
123.0, 13469.72000237942, 27425.031653050384, 20137.89357398672, 12314.380683229052, 31259.85339401405, 10443.897300231136, 15962.453599268629, 12747.535139028447, 0.002, -0.056, 1.014, 192.0, 0.0, 0.0, 0.0, 0.0, 0.0, 0.0, 0.0, 0.0, 0.0, 1.711779641898164E9, 0.0, 2024-03-29 23:20:41.898
124.0, 13528.125110641136, 27381.266937406894, 20214.895333635253, 12324.0589885782, 31314.90574060747, 10457.464809115507, 16076.246330290596, 12798.407709408726, 0.002, -0.056, 1.014, 192.0, 0.0, 0.0, 0.0, 0.0, 0.0, 0.0, 0.0, 0.0, 0.0, 1.711779641901306E9, 0.0, 2024-03-29 23:20:41.901
125.0, 13651.305574334334, 27425.3222257283, 20107.4952015275, 12333.424369504974, 31268.481167373797, 10457.107181204223, 15865.84935973279, 12777.888807998754, 0.002, -0.056, 1.014, 192.0, 0.0, 0.0, 0.0, 0.0, 0.0, 0.0, 0.0, 0.0, 0.0, 1.711779641906248E9, 0.0, 2024-03-29 23:20:41.906
126.0, 13619.677855930073, 27477.379438564712, 20005.638302044666, 12304.747081368814, 31224.783506963675, 10429.838052968747, 15746.066361196801, 12726.61390621828, 0.002, -0.056, 1.014, 192.0, 0.0, 0.0, 0.0, 0.0, 0.0, 0.0, 0.0, 0.0, 0.0, 1.711779641910152E9, 0.0, 2024-03-29 23:20:41.910
127.0, 13513.998808145381, 27423.869362338708, 20075.085172067305, 12287.67034860496, 31249.862164242528, 10412.180174849054, 15890.86096177828, 12724.311676539384, 0.002, -0.056, 1.014, 192.0, 0.0, 0.0, 0.0, 0.0, 0.0, 0.0, 0.0, 0.0, 0.0, 1.711779641914224E9, 0.0, 2024-03-29 23:20:41.914
128.0, 13455.057258016737, 27363.27378312037, 20234.29664782246, 12311.631418661049, 31292.19636824088, 10420.360913319697, 16095.446478777705, 12779.364023132805, 0.002, -0.056, 1.014, 192.0, 0.0, 0.0, 0.0, 0.0, 0.0, 0.0, 0.0, 0.0, 0.0, 1.711779641918224E9, 0.0, 2024-03-29 23:20:41.918
129.0, 13451.27981320379, 27407.776106330886, 20163.24045219904, 12310.424424460463, 31275.81253955514, 10463.142152207154, 15930.714122142092, 12782.985005734565, 0.002, -0.056, 1.014, 192.0, 0.0, 0.0, 0.0, 0.0, 0.0, 0.0, 0.0, 0.0, 0.0, 1.711779641922345E9, 0.0, 2024-03-29 23:20:41.922
130.0, 13621.51069897541, 27453.775996419907, 19886.011765719864, 12292.230104473843, 31213.18295159137, 10423.512509287895, 15653.23956647391, 12699.165964027163, 0.002, -0.056, 1.014, 192.0, 0.0, 0.0, 0.0, 0.0, 0.0, 0.0, 0.0, 0.0, 0.0, 1.711779641925324E9, 0.0, 2024-03-29 23:20:41.925
131.0, 13600.83533535425, 27429.18907751907, 20113.753689974987, 12284.496400892307, 31215.46282952581, 10393.650578695606, 15819.335379521297, 12709.783042643434, 0.014, -0.056, 1.014, 192.0, 0.0, 112.0, 254.0, 64.0, 31.0, 176.0, 0.0, 0.0, 0.0, 1.711779641929292E9, 0.0, 2024-03-29 23:20:41.929
132.0, 13524.749997228384, 27392.062829978804, 20221.645560460754, 12313.933648339946, 31289.71532460634, 10429.838052968747, 16054.609841657859, 12781.062755711408, 0.014, -0.056, 1.014, 192.0, 0.0, 0.0, 0.0, 0.0, 0.0, 0.0, 0.0, 0.0, 0.0, 1.711779641934251E9, 0.0, 2024-03-29 23:20:41.934
133.0, 13525.621715262141, 27423.46703093851, 20104.522419514946, 12332.753817171315, 31309.89894984948, 10469.490047632462, 15983.419535567706, 12813.763357849522, 0.014, -0.056, 1.014, 192.0, 0.0, 0.0, 0.0, 0.0, 0.0, 0.0, 0.0, 0.0, 0.0, 1.711779641938359E9, 0.0, 2024-03-29 23:20:41.938
134.0, 13488.294302021779, 27473.02084839593, 19997.27874961838, 12287.424479415951, 31236.652283269443, 10417.186965607043, 15739.494948326941, 12730.503109753503, 0.014, -0.056, 1.014, 192.0, 0.0, 0.0, 0.0, 0.0, 0.0, 0.0, 0.0, 0.0, 0.0, 1.711779641942316E9, 0.0, 2024-03-29 23:20:41.942
135.0, 13491.401194501066, 27424.115231527714, 19962.18651082355, 12252.75692376577, 31234.193591379357, 10392.510639728385, 15721.16651787359, 12675.18254222662, 0.014, -0.056, 1.014, 192.0, 0.0, 0.0, 0.0, 0.0, 0.0, 0.0, 0.0, 0.0, 0.0, 1.711779641946342E9, 0.0, 2024-03-29 23:20:41.946
136.0, 13534.920040955549, 27386.363135142703, 20242.81266245993, 12294.867610319568, 31324.002900600783, 10431.134454147155, 16002.396166610262, 12757.235796122051, 0.014, -0.056, 1.014, 192.0, 0.0, 0.0, 0.0, 0.0, 0.0, 0.0, 0.0, 0.0, 0.0, 1.711779641949307E9, 0.0, 2024-03-29 23:20:41.949
137.0, 13548.465198095466, 27410.368908687702, 20219.85742090433, 12338.565270729694, 31312.312938250656, 10471.233483699976, 16038.114254249842, 12825.386264966282, 0.014, -0.056, 1.014, 192.0, 0.0, 0.0, 0.0, 0.0, 0.0, 0.0, 0.0, 0.0, 0.0, 1.711779641953498E9, 0.0, 2024-03-29 23:20:41.953
138.0, 13556.243605165912, 27475.68070598611, 20020.859840018733, 12312.48078495035, 31234.864143713017, 10441.237442640953, 15764.975937005991, 12753.234833864552, 0.014, -0.056, 1.014, 192.0, 0.0, 0.0, 0.0, 0.0, 0.0, 0.0, 0.0, 0.0, 0.0, 1.711779641957535E9, 0.0, 2024-03-29 23:20:41.957
139.0, 13543.167834659558, 27436.60985667823, 19955.0116008534, 12270.370098396552, 31201.26947179669, 10403.597104978217, 15746.871023997192, 12689.979397056031, 0.014, -0.056, 1.014, 192.0, 0.0, 0.0, 0.0, 0.0, 0.0, 0.0, 0.0, 0.0, 0.0, 1.711779641962208E9, 0.0, 2024-03-29 23:20:41.962
140.0, 13469.89881633506, 27380.50697809541, 20149.762350292487, 12265.0950867051, 31244.587152551074, 10414.013017894391, 15963.414724280206, 12733.654705721701, 0.014, -0.056, 1.014, 192.0, 0.0, 0.0, 0.0, 0.0, 0.0, 0.0, 0.0, 0.0, 0.0, 1.711779641966399E9, 0.0, 2024-03-29 23:20:41.966
141.0, 13387.756155461808, 27344.855945689196, 20154.925603261665, 12284.138772981021, 31266.625972584006, 10421.657314498105, 16002.01618695452, 12770.28921488395, 0.02, -0.058, 1.01, 192.0, 0.0, 160.0, 254.0, 48.0, 31.0, 144.0, 0.0, 0.0, 0.0, 1.711779641970444E9, 0.0, 2024-03-29 23:20:41.970
142.0, 13545.335953871723, 27463.253136068957, 20164.693315588633, 12322.829642633158, 31233.85831521253, 10425.501814544417, 15824.453929001562, 12775.027784708474, 0.02, -0.058, 1.01, 192.0, 0.0, 0.0, 0.0, 0.0, 0.0, 0.0, 0.0, 0.0, 0.0, 1.711779641974466E9, 0.0, 2024-03-29 23:20:41.974
143.0, 13501.973569628426, 27471.38917105069, 20004.163086910616, 12280.450735145896, 31233.254818112233, 10422.68549474305, 15724.720445241983, 12709.380711243239, 0.02, -0.058, 1.01, 192.0, 0.0, 0.0, 0.0, 0.0, 0.0, 0.0, 0.0, 0.0, 0.0, 1.711779641977535E9, 0.0, 2024-03-29 23:20:41.977
144.0, 13571.845122795716, 27374.829635003764, 20114.69246324211, 12273.722860064849, 31229.544428532652, 10392.644750195117, 15919.605305147805, 12711.012388588475, 0.02, -0.058, 1.01, 192.0, 0.0, 0.0, 0.0, 0.0, 0.0, 0.0, 0.0, 0.0, 0.0, 1.711779641981603E9, 0.0, 2024-03-29 23:20:41.981
145.0, 13495.402156758566, 27350.89091669213, 20155.61850733978, 12300.34378771112, 31269.688161574384, 10423.53486103235, 16018.623533084814, 12778.738174288055, 0.02, -0.058, 1.01, 192.0, 0.0, 0.0, 0.0, 0.0, 0.0, 0.0, 0.0, 0.0, 0.0, 1.711779641985464E9, 0.0, 2024-03-29 23:20:41.985
146.0, 13534.271840366346, 27427.356234473737, 20042.09399725127, 12312.369026228074, 31240.385024593477, 10441.30449787432, 15820.587077210794, 12759.806246734412, 0.02, -0.058, 1.01, 192.0, 0.0, 0.0, 0.0, 0.0, 0.0, 0.0, 0.0, 0.0, 0.0, 1.711779641989516E9, 0.0, 2024-03-29 23:20:41.989
147.0, 13607.898486602127, 27463.409598280145, 19937.733702389443, 12291.894828307013, 31213.808800436116, 10412.470747526973, 15681.827447632248, 12697.534286681925, 0.02, -0.058, 1.01, 192.0, 0.0, 0.0, 0.0, 0.0, 0.0, 0.0, 0.0, 0.0, 0.0, 1.71177964199355E9, 0.0, 2024-03-29 23:20:41.993
148.0, 13482.751069396863, 27375.164911170592, 20000.519752564403, 12254.478008088829, 31203.482294497764, 10381.558284945284, 15863.882406220724, 12682.692728363601, 0.02, -0.058, 1.01, 192.0, 0.0, 0.0, 0.0, 0.0, 0.0, 0.0, 0.0, 0.0, 0.0, 1.711779641998501E9, 0.0, 2024-03-29 23:20:41.998
149.0, 13383.97871064886, 27319.777288410343, 20112.41258530767, 12249.828845242126, 31233.94772219035, 10398.322093286764, 15980.78202972198, 12732.894746410222, 0.02, -0.058, 1.01, 192.0, 0.0, 0.0, 0.0, 0.0, 0.0, 0.0, 0.0, 0.0, 0.0, 1.711779642002609E9, 0.0, 2024-03-29 23:20:42.002
150.0, 13514.892877923594, 27412.894655811153, 20166.90613828971, 12292.185400984932, 31260.65805681444, 10435.44834082703, 15855.858129961269, 12765.28242412596, 0.02, -0.058, 1.01, 192.0, 0.0, 0.0, 0.0, 0.0, 0.0, 0.0, 0.0, 0.0, 0.0, 1.711779642005685E9, 0.0, 2024-03-29 23:20:42.005
151.0, 13558.545834844808, 27466.896470415173, 20033.175651213605, 12280.316624679164, 31231.66784425591, 10420.718541230983, 15686.878941879148, 12700.060033805375, 0.014, -0.05, 1.008, 192.0, 0.0, 112.0, 254.0, 112.0, 31.0, 128.0, 0.0, 0.0, 0.0, 1.711779642009661E9, 0.0, 2024-03-29 23:20:42.009
152.0, 13523.945334427994, 27411.419440677102, 20017.171802183606, 12259.23892965781, 31237.300483858646, 10386.319206514265, 15800.917542090125, 12690.694652878601, 0.014, -0.05, 1.008, 192.0, 0.0, 0.0, 0.0, 0.0, 0.0, 0.0, 0.0, 0.0, 0.0, 1.711779642013649E9, 0.0, 2024-03-29 23:20:42.013
153.0, 13404.5646672922, 27329.097965848207, 20089.63615770771, 12255.819112756148, 31270.22460344131, 10404.155898589599, 15950.987154363056, 12723.886993394732, 0.014, -0.05, 1.008, 192.0, 0.0, 0.0, 0.0, 0.0, 0.0, 0.0, 0.0, 0.0, 0.0, 1.711779642017834E9, 0.0, 2024-03-29 23:20:42.017
154.0, 13435.477129873889, 27374.583765814754, 20142.05099845541, 12280.629549101539, 31289.3353449506, 10444.59020430925, 15891.732679812038, 12753.592461775836, 0.014, -0.05, 1.008, 192.0, 0.0, 0.0, 0.0, 0.0, 0.0, 0.0, 0.0, 0.0, 0.0, 1.711779642021664E9, 0.0, 2024-03-29 23:20:42.021
155.0, 13573.54385537432, 27463.208432580046, 19984.314737834306, 12281.411860157474, 31225.811687208618, 10435.180119893566, 15703.419232776074, 12705.156231541185, 0.014, -0.05, 1.008, 192.0, 0.0, 0.0, 0.0, 0.0, 0.0, 0.0, 0.0, 0.0, 0.0, 1.711779642026652E9, 0.0, 2024-03-29 23:20:42.026
156.0, 13503.493488251388, 27401.94230102805, 20014.310778893327, 12240.172891637432, 31215.060498125615, 10395.885753141136, 15757.935137502569, 12659.335155407805, 0.014, -0.05, 1.008, 192.0, 0.0, 0.0, 0.0, 0.0, 0.0, 0.0, 0.0, 0.0, 0.0, 1.711779642029772E9, 0.0, 2024-03-29 23:20:42.029
157.0, 13420.456757599923, 27318.145611065105, 20122.31440810137, 12227.052417642168, 31222.12364937349, 10386.743889658916, 15940.884165869256, 12694.762670369468, 0.014, -0.05, 1.008, 192.0, 0.0, 0.0, 0.0, 0.0, 0.0, 0.0, 0.0, 0.0, 0.0, 1.711779642033648E9, 0.0, 2024-03-29 23:20:42.033
158.0, 13439.99218225386, 27365.285440121348, 20167.04024875644, 12275.801572299191, 31262.66971381542, 10420.62913425316, 15932.479909954061, 12762.801380491423, 0.014, -0.05, 1.008, 192.0, 0.0, 0.0, 0.0, 0.0, 0.0, 0.0, 0.0, 0.0, 0.0, 1.711779642037858E9, 0.0, 2024-03-29 23:20:42.037
159.0, 13476.112601293637, 27424.04817629435, 20000.072717675295, 12240.776388737726, 31201.64945145243, 10395.103442085201, 15685.068450578268, 12677.484771905514, 0.014, -0.05, 1.008, 192.0, 0.0, 0.0, 0.0, 0.0, 0.0, 0.0, 0.0, 0.0, 0.0, 1.711779642041901E9, 0.0, 2024-03-29 23:20:42.041
160.0, 13516.05516863527, 27395.728516069477, 19981.252548843928, 12224.929001918914, 31176.36962847348, 10372.416421463064, 15711.376453802164, 12642.16901566613, 0.014, -0.05, 1.008, 192.0, 0.0, 0.0, 0.0, 0.0, 0.0, 0.0, 0.0, 0.0, 0.0, 1.711779642045778E9, 0.0, 2024-03-29 23:20:42.045
161.0, 13421.730807033875, 27345.83942244523, 20039.143566983174, 12234.741417734793, 31253.058463699635, 10406.033445123845, 15914.285589967441, 12691.633426145725, 0.014, -0.05, 1.008, 192.0, 0.0, 0.0, 0.0, 0.0, 0.0, 0.0, 0.0, 0.0, 0.0, 1.711779642049753E9, 0.0, 2024-03-29 23:20:42.049
162.0, 13385.923312416473, 27344.163041611082, 20088.92090188514, 12266.480894861328, 31272.750350564762, 10433.414332081597, 15943.029933336966, 12747.557490772902, 0.012, -0.052000000000000005, 1.018, 192.0, 0.0, 96.0, 254.0, 96.0, 31.0, 208.0, 0.0, 0.0, 0.0, 1.711779642054795E9, 0.0, 2024-03-29 23:20:42.054
163.0, 13491.758822412352, 27438.42034797911, 20053.06870377883, 12275.37688915454, 31218.70383247183, 10415.622343495172, 15736.298648869832, 12711.414719988672, 0.012, -0.052000000000000005, 1.018, 192.0, 0.0, 0.0, 0.0, 0.0, 0.0, 0.0, 0.0, 0.0, 0.0, 1.711779642057775E9, 0.0, 2024-03-29 23:20:42.057
164.0, 13510.489584265899, 27426.417461206613, 20044.57504088581, 12244.017391683745, 31196.08386708306, 10372.86345635217, 15703.262770564888, 12664.386649654705, 0.012, -0.052000000000000005, 1.018, 192.0, 0.0, 0.0, 0.0, 0.0, 0.0, 0.0, 0.0, 0.0, 0.0, 1.711779642061084E9, 0.0, 2024-03-29 23:20:42.061
165.0, 13450.51985389231, 27335.110585106682, 20027.09597672176, 12218.312885560143, 31201.78356191916, 10366.090877782211, 15853.667659004648, 12665.8395130443, 0.012, -0.052000000000000005, 1.018, 192.0, 0.0, 0.0, 0.0, 0.0, 0.0, 0.0, 0.0, 0.0, 0.0, 1.71177964206579E9, 0.0, 2024-03-29 23:20:42.065
166.0, 13398.328530589168, 27325.45463150199, 20130.673960527656, 12248.621851041538, 31258.646399813464, 10429.815701224292, 15938.984267590557, 12736.269859822973, 0.012, -0.052000000000000005, 1.018, 192.0, 0.0, 0.0, 0.0, 0.0, 0.0, 0.0, 0.0, 0.0, 0.0, 1.711779642069987E9, 0.0, 2024-03-29 23:20:42.069
167.0, 13481.029985073805, 27412.313510455315, 20061.20473876056, 12263.128133193033, 31229.589132021563, 10427.1111401452, 15756.50462585743, 12711.7499961555, 0.012, -0.052000000000000005, 1.018, 192.0, 0.0, 0.0, 0.0, 0.0, 0.0, 0.0, 0.0, 0.0, 0.0, 1.711779642073978E9, 0.0, 2024-03-29 23:20:42.073
168.0, 13490.440069489488, 27409.921873798594, 19988.24864485844, 12216.658856470449, 31179.45416920831, 10372.327014485243, 15665.465970690962, 12639.464454587038, 0.012, -0.052000000000000005, 1.018, 192.0, 0.0, 0.0, 0.0, 0.0, 0.0, 0.0, 0.0, 0.0, 0.0, 1.71177964207793E9, 0.0, 2024-03-29 23:20:42.077
169.0, 13439.455740386933, 27342.08432937674, 19989.67915650358, 12205.304170287154, 31231.936065189373, 10370.67298539555, 15810.014702083434, 12646.192329668085, 0.012, -0.052000000000000005, 1.018, 192.0, 0.0, 0.0, 0.0, 0.0, 0.0, 0.0, 0.0, 0.0, 0.0, 1.711779642081899E9, 0.0, 2024-03-29 23:20:42.081
170.0, 13411.359597606612, 27293.893968331096, 20059.416599204138, 12228.572336265128, 31264.815481283127, 10394.812869407282, 15923.136880771743, 12704.642141418713, 0.012, -0.052000000000000005, 1.018, 192.0, 0.0, 0.0, 0.0, 0.0, 0.0, 0.0, 0.0, 0.0, 0.0, 1.711779642085897E9, 0.0, 2024-03-29 23:20:42.085
171.0, 13454.498464405355, 27405.742097585455, 20099.761497945965, 12272.851142031092, 31237.54635304765, 10412.806023693804, 15798.727071133504, 12730.368999286771, 0.012, -0.052000000000000005, 1.018, 192.0, 0.0, 0.0, 0.0, 0.0, 0.0, 0.0, 0.0, 0.0, 0.0, 1.711779642089936E9, 0.0, 2024-03-29 23:20:42.089
172.0, 13497.346758526179, 27429.591408919267, 20015.696587049555, 12227.27593508672, 31173.59801216102, 10357.843084078204, 15646.534043137319, 12649.142759936185, 0.012, -0.056, 1.018, 192.0, 0.0, 96.0, 254.0, 64.0, 31.0, 208.0, 0.0, 0.0, 0.0, 1.711779642094017E9, 0.0, 2024-03-29 23:20:42.094
173.0, 13471.597548913664, 27362.40206508661, 20026.380720899193, 12209.685112200394, 31191.36764900299, 10357.485456166918, 15787.148867505655, 12644.73946627849, 0.012, -0.056, 1.018, 192.0, 0.0, 0.0, 0.0, 0.0, 0.0, 0.0, 0.0, 0.0, 0.0, 1.711779642098058E9, 0.0, 2024-03-29 23:20:42.098
174.0, 13381.140039103037, 27293.089305530706, 20010.376871869194, 12214.04370236918, 31250.599771809553, 10389.29198852682, 15920.745244115025, 12688.392423199704, 0.012, -0.056, 1.018, 192.0, 0.0, 0.0, 0.0, 0.0, 0.0, 0.0, 0.0, 0.0, 0.0, 1.711779642101001E9, 0.0, 2024-03-29 23:20:42.101
175.0, 13447.90469979104, 27373.197957658525, 20099.225056079038, 12258.657784301971, 31265.038998727683, 10409.207392836499, 15822.844603400781, 12724.758711428489, 0.012, -0.056, 1.018, 192.0, 0.0, 0.0, 0.0, 0.0, 0.0, 0.0, 0.0, 0.0, 0.0, 1.711779642105076E9, 0.0, 2024-03-29 23:20:42.105
176.0, 13502.264142306345, 27415.599216890245, 19977.877435431175, 12225.532499019206, 31162.93623005584, 10352.52336889784, 15634.665266831551, 12641.677277288114, 0.012, -0.056, 1.018, 192.0, 0.0, 0.0, 0.0, 0.0, 0.0, 0.0, 0.0, 0.0, 0.0, 1.711779642110052E9, 0.0, 2024-03-29 23:20:42.110
177.0, 13459.527606907799, 27367.408855844602, 19993.791877483356, 12207.539344732684, 31162.086863766537, 10335.67015357854, 15749.843806009747, 12631.797806238868, 0.012, -0.056, 1.018, 192.0, 0.0, 0.0, 0.0, 0.0, 0.0, 0.0, 0.0, 0.0, 0.0, 1.711779642114012E9, 0.0, 2024-03-29 23:20:42.114
178.0, 13380.514190258287, 27301.270044001347, 20104.745936959498, 12213.864888413536, 31213.428820780377, 10366.604967904685, 15920.991113304033, 12683.095059763797, 0.012, -0.056, 1.018, 192.0, 0.0, 0.0, 0.0, 0.0, 0.0, 0.0, 0.0, 0.0, 0.0, 1.71177964211806E9, 0.0, 2024-03-29 23:20:42.118
179.0, 13406.41986208199, 27329.276779803848, 20027.09597672176, 12248.0407056857, 31213.719393458297, 10423.311343587799, 15834.17693783962, 12702.764594884467, 0.012, -0.056, 1.018, 192.0, 0.0, 0.0, 0.0, 0.0, 0.0, 0.0, 0.0, 0.0, 0.0, 1.711779642122291E9, 0.0, 2024-03-29 23:20:42.122
180.0, 13497.994959115382, 27404.780972573873, 19916.812469579276, 12236.931888691413, 31161.036331777137, 10408.603895736205, 15638.465063388952, 12638.59273655328, 0.012, -0.056, 1.018, 192.0, 0.0, 0.0, 0.0, 0.0, 0.0, 0.0, 0.0, 0.0, 0.0, 1.711779642125159E9, 0.0, 2024-03-29 23:20:42.125
181.0, 13429.777435037784, 27350.13095738065, 19961.918289890087, 12177.766821118215, 31164.098520767515, 10352.679831109028, 15675.345441740208, 12593.173991820096, 0.012, -0.056, 1.018, 192.0, 0.0, 0.0, 0.0, 0.0, 0.0, 0.0, 0.0, 0.0, 0.0, 1.711779642129162E9, 0.0, 2024-03-29 23:20:42.129
182.0, 13329.418102433456, 27258.62291558062, 20012.366177125714, 12163.21583547781, 31176.615497662486, 10341.99569725939, 15836.143891351689, 12616.576268264804, 0.01, -0.05, 1.016, 192.0, 0.0, 80.0, 254.0, 112.0, 31.0, 192.0, 0.0, 0.0, 0.0, 1.711779642133078E9, 0.0, 2024-03-29 23:20:42.133
183.0, 13363.705678427898, 27307.640291171112, 20052.554613656357, 12230.606345010561, 31222.1683528624, 10397.24920955291, 15862.183673642121, 12698.316597737861, 0.01, -0.05, 1.016, 192.0, 0.0, 0.0, 0.0, 0.0, 0.0, 0.0, 0.0, 0.0, 0.0, 1.711779642137145E9, 0.0, 2024-03-29 23:20:42.137
184.0, 13425.374141380089, 27376.461312349, 19944.66274317059, 12205.617094709527, 31159.762282343185, 10365.845008593204, 15638.487415133408, 12624.444082313072, 0.01, -0.05, 1.016, 192.0, 0.0, 0.0, 0.0, 0.0, 0.0, 0.0, 0.0, 0.0, 0.0, 1.711779642142121E9, 0.0, 2024-03-29 23:20:42.142
185.0, 13404.162335892002, 27363.69846626502, 19880.043849950296, 12179.68907114137, 31169.12766326996, 10352.456313664474, 15644.790607069805, 12591.9222941306, 0.01, -0.05, 1.016, 192.0, 0.0, 0.0, 0.0, 0.0, 0.0, 0.0, 0.0, 0.0, 0.0, 1.711779642146176E9, 0.0, 2024-03-29 23:20:42.146
186.0, 13321.080901751626, 27292.10582877467, 20029.241744189472, 12180.091402541568, 31205.583358476564, 10356.211406732966, 15848.079722890821, 12633.273021372917, 0.01, -0.05, 1.016, 192.0, 0.0, 0.0, 0.0, 0.0, 0.0, 0.0, 0.0, 0.0, 0.0, 1.711779642150166E9, 0.0, 2024-03-29 23:20:42.150
187.0, 13400.563705034698, 27277.4877879009, 20056.86850033623, 12217.195298337378, 31225.811687208618, 10368.86249409467, 15880.310938395374, 12684.860847575766, 0.01, -0.05, 1.016, 192.0, 0.0, 0.0, 0.0, 0.0, 0.0, 0.0, 0.0, 0.0, 0.0, 1.711779642153303E9, 0.0, 2024-03-29 23:20:42.153
188.0, 13429.062179215214, 27370.26987913488, 19993.590711783258, 12215.65302796996, 31213.49587601374, 10363.140447514112, 15679.547569697806, 12642.459588344049, 0.01, -0.05, 1.016, 192.0, 0.0, 0.0, 0.0, 0.0, 0.0, 0.0, 0.0, 0.0, 0.0, 1.711779642157206E9, 0.0, 2024-03-29 23:20:42.157
189.0, 13352.5521579447, 27355.204803372006, 19875.819370248246, 12157.02440226369, 31172.055741793603, 10333.457330877463, 15603.99867343887, 12573.01271832141, 0.01, -0.05, 1.016, 192.0, 0.0, 0.0, 0.0, 0.0, 0.0, 0.0, 0.0, 0.0, 0.0, 1.711779642161267E9, 0.0, 2024-03-29 23:20:42.161
190.0, 13308.3404074121, 27282.06989551424, 19997.9716536965, 12147.010820747713, 31168.479462680756, 10327.914098252548, 15781.78444883638, 12596.526753488393, 0.01, -0.05, 1.016, 192.0, 0.0, 0.0, 0.0, 0.0, 0.0, 0.0, 0.0, 0.0, 0.0, 1.711779642165236E9, 0.0, 2024-03-29 23:20:42.165
191.0, 13341.44334095041, 27261.327476659713, 20058.813102103843, 12193.770670148215, 31190.13830305795, 10361.62052889115, 15877.42756336064, 12669.706364835069, 0.01, -0.05, 1.016, 192.0, 0.0, 0.0, 0.0, 0.0, 0.0, 0.0, 0.0, 0.0, 0.0, 1.711779642169296E9, 0.0, 2024-03-29 23:20:42.169
192.0, 13469.563540168232, 27359.56339354079, 20014.78016552689, 12226.672437986426, 31172.16750051588, 10366.806133604781, 15718.68547423905, 12658.977527496521, 0.01, -0.05, 1.016, 192.0, 0.0, 0.0, 0.0, 0.0, 0.0, 0.0, 0.0, 0.0, 0.0, 1.71177964217443E9, 0.0, 2024-03-29 23:20:42.174
193.0, 13469.854112846151, 27374.047323947827, 19889.297472154794, 12181.074879297601, 31149.41342466038, 10337.815921046249, 15599.03658616979, 12586.624930694692, 0.01, -0.052000000000000005, 1.012, 192.0, 0.0, 80.0, 254.0, 96.0, 31.0, 160.0, 0.0, 0.0, 0.0, 1.711779642178445E9, 0.0, 2024-03-29 23:20:42.178
194.0, 13339.58814616062, 27254.890174256587, 19914.42083292256, 12117.327704111065, 31135.510639609176, 10294.475888547408, 15710.281218323855, 12548.67166860958, 0.01, -0.052000000000000005, 1.012, 192.0, 0.0, 0.0, 0.0, 0.0, 0.0, 0.0, 0.0, 0.0, 0.0, 1.711779642181288E9, 0.0, 2024-03-29 23:20:42.181
195.0, 13295.845782261586, 27239.86980198262, 20018.647017317657, 12166.658004123927, 31208.89141665595, 10347.784799073315, 15856.79690322839, 12638.458626086549, 0.01, -0.052000000000000005, 1.012, 192.0, 0.0, 0.0, 0.0, 0.0, 0.0, 0.0, 0.0, 0.0, 0.0, 1.711779642185497E9, 0.0, 2024-03-29 23:20:42.185
196.0, 13356.21784403537, 27318.25736978738, 19966.120417847684, 12200.006806851246, 31192.99932634823, 10368.281348738832, 15730.844823222737, 12639.464454587038, 0.01, -0.052000000000000005, 1.012, 192.0, 0.0, 0.0, 0.0, 0.0, 0.0, 0.0, 0.0, 0.0, 0.0, 1.711779642189416E9, 0.0, 2024-03-29 23:20:42.189
197.0, 13450.676316103498, 27377.04245770484, 19928.9047633296, 12182.55009443165, 31168.658276636397, 10343.962650771458, 15601.696443759973, 12588.234256295475, 0.01, -0.052000000000000005, 1.012, 192.0, 0.0, 0.0, 0.0, 0.0, 0.0, 0.0, 0.0, 0.0, 0.0, 1.711779642193401E9, 0.0, 2024-03-29 23:20:42.193
198.0, 13378.390774535033, 27312.08828831772, 19982.10191513323, 12151.034134749669, 31163.003285289204, 10330.819825031736, 15717.478480038462, 12579.293558513351, 0.01, -0.052000000000000005, 1.012, 192.0, 0.0, 0.0, 0.0, 0.0, 0.0, 0.0, 0.0, 0.0, 0.0, 1.711779642197641E9, 0.0, 2024-03-29 23:20:42.197
199.0, 13298.103308451571, 27225.788202975775, 19950.563603706792, 12143.903928268424, 31177.710733140797, 10317.676999292016, 15830.46654826004, 12610.653055984147, 0.01, -0.052000000000000005, 1.012, 192.0, 0.0, 0.0, 0.0, 0.0, 0.0, 0.0, 0.0, 0.0, 0.0, 1.711779642201344E9, 0.0, 2024-03-29 23:20:42.201
200.0, 13353.73680040083, 27269.888194786097, 19950.85417638471, 12178.325614729598, 31170.759340615197, 10327.377656385619, 15749.553233331828, 12622.83475671229, 0.01, -0.052000000000000005, 1.012, 192.0, 0.0, 0.0, 0.0, 0.0, 0.0, 0.0, 0.0, 0.0, 0.0, 1.711779642206507E9, 0.0, 2024-03-29 23:20:42.206
201.0, 13424.524775090787, 27369.331105867757, 19942.65108616961, 12169.943710558857, 31171.429892948854, 10331.624487832129, 15596.242618112878, 12584.702680671535, 0.01, -0.052000000000000005, 1.012, 192.0, 0.0, 0.0, 0.0, 0.0, 0.0, 0.0, 0.0, 0.0, 0.0, 1.711779642209482E9, 0.0, 2024-03-29 23:20:42.209
202.0, 13361.984594104839, 27317.296244775804, 19952.262336285396, 12130.805806017615, 31160.209317232293, 10301.89666770657, 15666.158874769078, 12562.887378083156, 0.01, -0.052000000000000005, 1.012, 192.0, 0.0, 0.0, 0.0, 0.0, 0.0, 0.0, 0.0, 0.0, 0.0, 1.711779642213471E9, 0.0, 2024-03-29 23:20:42.213
203.0, 13273.449334317367, 27235.62297053611, 20029.889944778675, 12131.990448473745, 31158.97997128725, 10298.208629871444, 15833.484033761506, 12605.668616970614, 0.006, -0.054, 1.014, 192.0, 0.0, 48.0, 254.0, 80.0, 31.0, 176.0, 0.0, 0.0, 0.0, 1.711779642217412E9, 0.0, 2024-03-29 23:20:42.217
204.0, 13277.897331463973, 27247.089415441682, 19990.372060581692, 12151.525873127684, 31136.58352334303, 10301.673150262017, 15770.921501031102, 12621.851279956256, 0.006, -0.054, 1.014, 192.0, 0.0, 0.0, 0.0, 0.0, 0.0, 0.0, 0.0, 0.0, 0.0, 1.711779642221506E9, 0.0, 2024-03-29 23:20:42.221
205.0, 13414.444138341445, 27345.571201511768, 19905.480135140435, 12168.088515769066, 31098.742019980196, 10297.806298471249, 15595.884990201592, 12577.080735812277, 0.006, -0.054, 1.014, 192.0, 0.0, 0.0, 0.0, 0.0, 0.0, 0.0, 0.0, 0.0, 0.0, 1.711779642225589E9, 0.0, 2024-03-29 23:20:42.225
206.0, 13368.041916852228, 27312.334157506724, 19900.4956961269, 12136.0137624757, 31102.318299093047, 10283.992920397868, 15630.105510962667, 12548.67166860958, 0.006, -0.054, 1.014, 192.0, 0.0, 0.0, 0.0, 0.0, 0.0, 0.0, 0.0, 0.0, 0.0, 1.711779642229629E9, 0.0, 2024-03-29 23:20:42.229
207.0, 13264.061601646139, 27211.170162102004, 19930.961123819485, 12108.230544117754, 31122.814848758564, 10266.2232835559, 15784.22078898201, 12562.8650263387, 0.006, -0.054, 1.014, 192.0, 0.0, 0.0, 0.0, 0.0, 0.0, 0.0, 0.0, 0.0, 0.0, 1.711779642233484E9, 0.0, 2024-03-29 23:20:42.233
208.0, 13289.989625214295, 27201.022470119296, 19989.05330765883, 12137.846605521037, 31116.53400856662, 10265.105696333134, 15785.07015527131, 12600.43830876807, 0.006, -0.054, 1.014, 192.0, 0.0, 0.0, 0.0, 0.0, 0.0, 0.0, 0.0, 0.0, 0.0, 1.711779642236688E9, 0.0, 2024-03-29 23:20:42.236
209.0, 13354.474407967855, 27306.36624173716, 19916.588952134724, 12136.438445620352, 31083.274612817124, 10278.896722662059, 15594.65564425655, 12555.891282068646, 0.006, -0.054, 1.014, 192.0, 0.0, 0.0, 0.0, 0.0, 0.0, 0.0, 0.0, 0.0, 0.0, 1.711779642240632E9, 0.0, 2024-03-29 23:20:42.240
210.0, 13338.939945571417, 27338.84332643072, 19906.731832829933, 12132.057503707112, 31105.00050842768, 10308.401025343064, 15607.574952551719, 12557.858235580712, 0.006, -0.054, 1.014, 192.0, 0.0, 0.0, 0.0, 0.0, 0.0, 0.0, 0.0, 0.0, 0.0, 1.711779642245584E9, 0.0, 2024-03-29 23:20:42.245
211.0, 13284.58050305611, 27249.81632826523, 19971.57424349478, 12118.512346567197, 31149.011093260182, 10306.881106720104, 15774.318966188308, 12576.454886967527, 0.006, -0.054, 1.014, 192.0, 0.0, 0.0, 0.0, 0.0, 0.0, 0.0, 0.0, 0.0, 0.0, 1.711779642249624E9, 0.0, 2024-03-29 23:20:42.249
212.0, 13271.527084294212, 27216.66869123801, 19977.720973219988, 12142.942803256847, 31179.767093630686, 10324.628391817618, 15819.693007432583, 12619.280829343896, 0.006, -0.054, 1.014, 192.0, 0.0, 0.0, 0.0, 0.0, 0.0, 0.0, 0.0, 0.0, 0.0, 1.711779642253786E9, 0.0, 2024-03-29 23:20:42.253
213.0, 13340.59397466111, 27297.716116632953, 19930.245867996917, 12145.937937013858, 31125.385299370922, 10303.46128981844, 15635.469929631941, 12571.805724120823, 0.012, -0.048, 1.016, 192.0, 0.0, 96.0, 254.0, 128.0, 31.0, 192.0, 0.0, 0.0, 0.0, 1.711779642257712E9, 0.0, 2024-03-29 23:20:42.257
214.0, 13370.657070953497, 27292.10582877467, 19871.639594035103, 12095.713567222783, 31077.999601125674, 10256.41086774002, 15544.587736676664, 12504.57167679926, 0.012, -0.048, 1.016, 192.0, 0.0, 0.0, 0.0, 0.0, 0.0, 0.0, 0.0, 0.0, 0.0, 1.711779642261804E9, 0.0, 2024-03-29 23:20:42.261
215.0, 13264.821560957618, 27194.09342933815, 19921.28281847034, 12057.782656882127, 31087.588499497, 10228.605297637618, 15686.72247966796, 12499.52018255236, 0.012, -0.048, 1.016, 192.0, 0.0, 0.0, 0.0, 0.0, 0.0, 0.0, 0.0, 0.0, 0.0, 1.711779642265156E9, 0.0, 2024-03-29 23:20:42.265
216.0, 13246.895461904462, 27177.19551052994, 19989.34388033675, 12115.472509321275, 31149.860459549483, 10266.022117855802, 15814.261533529942, 12587.474296983994, 0.012, -0.048, 1.016, 192.0, 0.0, 0.0, 0.0, 0.0, 0.0, 0.0, 0.0, 0.0, 0.0, 1.711779642268655E9, 0.0, 2024-03-29 23:20:42.268
217.0, 13330.78155884523, 27290.7423723629, 19947.210842038494, 12155.817408063103, 31141.299741423103, 10323.108473194656, 15683.81675288877, 12591.005872607931, 0.012, -0.048, 1.016, 192.0, 0.0, 0.0, 0.0, 0.0, 0.0, 0.0, 0.0, 0.0, 0.0, 1.711779642273712E9, 0.0, 2024-03-29 23:20:42.273
218.0, 13287.799154257675, 27291.88231133012, 19856.440407805494, 12085.275302562155, 31104.888749705406, 10276.639196472073, 15535.714094127905, 12495.832144717235, 0.012, -0.048, 1.016, 192.0, 0.0, 0.0, 0.0, 0.0, 0.0, 0.0, 0.0, 0.0, 0.0, 1.711779642277716E9, 0.0, 2024-03-29 23:20:42.277
219.0, 13281.875941977018, 27211.10310686864, 19878.814504005255, 12061.962433095268, 31098.853778702472, 10243.044524555746, 15651.853758317682, 12491.920589437555, 0.012, -0.048, 1.016, 192.0, 0.0, 0.0, 0.0, 0.0, 0.0, 0.0, 0.0, 0.0, 0.0, 1.711779642281715E9, 0.0, 2024-03-29 23:20:42.281
220.0, 13235.831348399086, 27146.953600281908, 19909.9504840315, 12079.754421681693, 31109.73907825221, 10253.818065383204, 15778.319928445808, 12546.592956375236, 0.012, -0.048, 1.016, 192.0, 0.0, 0.0, 0.0, 0.0, 0.0, 0.0, 0.0, 0.0, 0.0, 1.711779642285919E9, 0.0, 2024-03-29 23:20:42.285
221.0, 13276.91385470794, 27231.66671176752, 19924.859097583187, 12120.792224501638, 31089.644859986885, 10279.32140580671, 15684.643767433618, 12562.44034319405, 0.012, -0.048, 1.016, 192.0, 0.0, 0.0, 0.0, 0.0, 0.0, 0.0, 0.0, 0.0, 0.0, 1.711779642288748E9, 0.0, 2024-03-29 23:20:42.288
222.0, 13340.906899083484, 27288.238976983903, 19861.491902052392, 12090.595017742518, 31049.94816183426, 10250.308841503722, 15521.744253843339, 12495.250999361397, 0.012, -0.048, 1.016, 192.0, 0.0, 0.0, 0.0, 0.0, 0.0, 0.0, 0.0, 0.0, 0.0, 1.711779642292788E9, 0.0, 2024-03-29 23:20:42.292
223.0, 13236.81482515512, 27214.09824062565, 19866.677506766024, 12042.024677041136, 31046.43893795478, 10223.196175479434, 15602.970493193925, 12470.440563016005, 0.012, -0.048, 1.016, 192.0, 0.0, 0.0, 0.0, 0.0, 0.0, 0.0, 0.0, 0.0, 0.0, 1.711779642296779E9, 0.0, 2024-03-29 23:20:42.296
224.0, 13203.868353827997, 27147.512393893292, 19931.81049010879, 12062.968261595757, 31092.30471757707, 10241.770475121793, 15767.702849829539, 12530.454996878505, 0.014, -0.046, 1.016, 192.0, 0.0, 112.0, 254.0, 144.0, 31.0, 192.0, 0.0, 0.0, 0.0, 1.711779642300792E9, 0.0, 2024-03-29 23:20:42.300
225.0, 13269.984813926794, 27198.921406140496, 19933.263353498383, 12107.850564462015, 31089.689563475797, 10267.005594611835, 15706.995511888923, 12557.00886929141, 0.014, -0.046, 1.016, 192.0, 0.0, 0.0, 0.0, 0.0, 0.0, 0.0, 0.0, 0.0, 0.0, 1.711779642305926E9, 0.0, 2024-03-29 23:20:42.305
226.0, 13327.629962877032, 27268.54709011878, 19841.956477398453, 12083.151886838901, 31038.705234373243, 10235.959021563414, 15514.032902006258, 12485.595045756703, 0.014, -0.046, 1.016, 192.0, 0.0, 0.0, 0.0, 0.0, 0.0, 0.0, 0.0, 0.0, 0.0, 1.711779642309876E9, 0.0, 2024-03-29 23:20:42.309
227.0, 13268.57665402611, 27210.96899640191, 19817.05663407524, 12035.945002549292, 31032.75967034813, 10208.622838094574, 15557.283527527277, 12453.36383025215, 0.014, -0.046, 1.016, 192.0, 0.0, 0.0, 0.0, 0.0, 0.0, 0.0, 0.0, 0.0, 0.0, 1.711779642314119E9, 0.0, 2024-03-29 23:20:42.314
228.0, 13167.189141176837, 27132.156745452496, 19875.573501059236, 12029.842976312993, 31064.879127130407, 10219.910469044504, 15732.521204056884, 12496.882676706635, 0.014, -0.046, 1.016, 192.0, 0.0, 0.0, 0.0, 0.0, 0.0, 0.0, 0.0, 0.0, 0.0, 1.711779642316867E9, 0.0, 2024-03-29 23:20:42.316
229.0, 13199.018025281195, 27176.770827385288, 19951.52472871837, 12095.557105011596, 31098.02676415763, 10259.406001497031, 15741.21603265, 12561.143942015642, 0.014, -0.046, 1.016, 192.0, 0.0, 0.0, 0.0, 0.0, 0.0, 0.0, 0.0, 0.0, 0.0, 1.711779642320844E9, 0.0, 2024-03-29 23:20:42.320
230.0, 13295.935189239406, 27256.186575434993, 19856.59687001668, 12076.066383846568, 31036.470059927713, 10224.559631891207, 15532.629553393073, 12489.350138825195, 0.014, -0.046, 1.016, 192.0, 0.0, 0.0, 0.0, 0.0, 0.0, 0.0, 0.0, 0.0, 0.0, 1.711779642324864E9, 0.0, 2024-03-29 23:20:42.324
231.0, 13276.243302374281, 27227.91161869903, 19835.765044184333, 12044.170444508845, 31033.43022268179, 10205.203021192912, 15538.396303462543, 12457.498902976384, 0.014, -0.046, 1.016, 192.0, 0.0, 0.0, 0.0, 0.0, 0.0, 0.0, 0.0, 0.0, 0.0, 1.711779642328952E9, 0.0, 2024-03-29 23:20:42.328
232.0, 13175.124010458472, 27140.113966478584, 19900.98743450492, 12033.173386236833, 31075.5856127245, 10191.568457075175, 15705.408538032598, 12484.61156900067, 0.014, -0.046, 1.016, 192.0, 0.0, 0.0, 0.0, 0.0, 0.0, 0.0, 0.0, 0.0, 0.0, 1.711779642333892E9, 0.0, 2024-03-29 23:20:42.333
233.0, 13227.4717959728, 27150.28401020575, 19933.24100175393, 12095.981788156247, 31110.499037563688, 10234.193233751444, 15760.840864281758, 12553.47729366747, 0.014, -0.046, 1.016, 192.0, 0.0, 0.0, 0.0, 0.0, 0.0, 0.0, 0.0, 0.0, 0.0, 1.711779642337948E9, 0.0, 2024-03-29 23:20:42.337
234.0, 13276.869151219029, 27234.550086802257, 19839.386026786095, 12081.989596127225, 31078.156063336857, 10234.2155854959, 15544.207757020922, 12487.8972754356, 0.008, -0.048, 1.008, 192.0, 0.0, 64.0, 254.0, 128.0, 31.0, 128.0, 0.0, 0.0, 0.0, 1.711779642341923E9, 0.0, 2024-03-29 23:20:42.341
235.0, 13222.912040103918, 27213.874723181096, 19771.324964919684, 12022.04221749809, 31018.722774830196, 10196.262323410789, 15483.790991758227, 12424.351265949163, 0.008, -0.048, 1.008, 192.0, 0.0, 0.0, 0.0, 0.0, 0.0, 0.0, 0.0, 0.0, 0.0, 1.711779642345005E9, 0.0, 2024-03-29 23:20:42.345
236.0, 13209.344531219547, 27141.969161268375, 19826.578477213203, 12022.824528554027, 31031.82089708101, 10196.955227488903, 15662.895520078602, 12458.482379732417, 0.008, -0.048, 1.008, 192.0, 0.0, 0.0, 0.0, 0.0, 0.0, 0.0, 0.0, 0.0, 0.0, 1.711779642348989E9, 0.0, 2024-03-29 23:20:42.348
237.0, 13167.703231299309, 27108.21802714086, 19847.20913734545, 12045.332735220521, 31057.435996226788, 10203.481936869854, 15721.770014973881, 12512.461842591983, 0.008, -0.048, 1.008, 192.0, 0.0, 0.0, 0.0, 0.0, 0.0, 0.0, 0.0, 0.0, 0.0, 1.711779642353101E9, 0.0, 2024-03-29 23:20:42.353
238.0, 13240.256993801237, 27218.121554627607, 19909.61520786467, 12070.970186110759, 31036.09008027197, 10212.288524185244, 15584.820876696216, 12501.464784319973, 0.008, -0.048, 1.008, 192.0, 0.0, 0.0, 0.0, 0.0, 0.0, 0.0, 0.0, 0.0, 0.0, 1.711779642357157E9, 0.0, 2024-03-29 23:20:42.357
239.0, 13240.927546134895, 27219.708528483934, 19785.272453459795, 12017.482461629208, 31003.52358860059, 10177.1515819015, 15465.216692115868, 12426.02764678331, 0.008, -0.048, 1.008, 192.0, 0.0, 0.0, 0.0, 0.0, 0.0, 0.0, 0.0, 0.0, 0.0, 1.711779642361069E9, 0.0, 2024-03-29 23:20:42.361
240.0, 13183.75178381822, 27152.273315462273, 19865.11288465415, 12006.32894114601, 31028.53519064608, 10183.275959882256, 15633.011237741857, 12446.546548193282, 0.008, -0.048, 1.008, 192.0, 0.0, 0.0, 0.0, 0.0, 0.0, 0.0, 0.0, 0.0, 0.0, 1.711779642366024E9, 0.0, 2024-03-29 23:20:42.366
241.0, 13170.94423424533, 27120.399727869004, 19937.84546111172, 12048.95371782228, 31068.075426587515, 10214.903678286515, 15760.617346837205, 12524.777653786858, 0.008, -0.048, 1.008, 192.0, 0.0, 0.0, 0.0, 0.0, 0.0, 0.0, 0.0, 0.0, 0.0, 1.711779642369028E9, 0.0, 2024-03-29 23:20:42.369
242.0, 13224.700179660342, 27187.23144379037, 19866.45398932147, 12062.074191817546, 31018.05222249654, 10206.991160749336, 15606.65853102905, 12498.536705796327, 0.008, -0.048, 1.008, 192.0, 0.0, 0.0, 0.0, 0.0, 0.0, 0.0, 0.0, 0.0, 0.0, 1.711779642372107E9, 0.0, 2024-03-29 23:20:42.372
243.0, 13260.507674277744, 27216.10989762663, 19777.695212089446, 12022.243383198189, 30986.13393141436, 10161.684174738428, 15458.377058312542, 12422.294905459274, 0.008, -0.048, 1.008, 192.0, 0.0, 0.0, 0.0, 0.0, 0.0, 0.0, 0.0, 0.0, 0.0, 1.71177964237708E9, 0.0, 2024-03-29 23:20:42.377
244.0, 13183.483562884756, 27147.288876448736, 19825.7291109239, 11989.207504893244, 31001.444876366244, 10148.518997254252, 15575.388440536075, 12419.925620547012, 0.012, -0.048, 1.012, 192.0, 0.0, 96.0, 254.0, 128.0, 31.0, 160.0, 0.0, 0.0, 0.0, 1.71177964238111E9, 0.0, 2024-03-29 23:20:42.381
245.0, 13116.07070160755, 27075.919756402942, 19852.953535670465, 12000.271618398621, 31024.04249001056, 10175.050517922702, 15712.985779402947, 12471.46874326095, 0.012, -0.048, 1.012, 192.0, 0.0, 0.0, 0.0, 0.0, 0.0, 0.0, 0.0, 0.0, 0.0, 1.711779642385095E9, 0.0, 2024-03-29 23:20:42.385
246.0, 13196.22405722428, 27150.798100328222, 19862.207157874964, 12048.506682933174, 31025.204780722237, 10196.709358299895, 15631.647781330084, 12491.741775481913, 0.012, -0.048, 1.012, 192.0, 0.0, 0.0, 0.0, 0.0, 0.0, 0.0, 0.0, 0.0, 0.0, 1.711779642389398E9, 0.0, 2024-03-29 23:20:42.389
247.0, 13264.754505724253, 27222.7260139854, 19801.45511644544, 12032.927517047825, 31006.406963635323, 10182.180724403945, 15467.094238650114, 12434.297792231775, 0.012, -0.048, 1.012, 192.0, 0.0, 0.0, 0.0, 0.0, 0.0, 0.0, 0.0, 0.0, 0.0, 1.711779642394185E9, 0.0, 2024-03-29 23:20:42.394
248.0, 13167.36795513248, 27131.575600096658, 19782.858465058624, 11962.474818524697, 31002.495408355644, 10122.501566708275, 15516.983332274358, 12386.733280030881, 0.012, -0.048, 1.012, 192.0, 0.0, 0.0, 0.0, 0.0, 0.0, 0.0, 0.0, 0.0, 0.0, 1.711779642397176E9, 0.0, 2024-03-29 23:20:42.397
249.0, 13104.291332279603, 27073.349305790583, 19858.720285739935, 11987.03938568108, 31017.538132374066, 10154.755133957284, 15695.573770472261, 12453.006202340866, 0.012, -0.048, 1.012, 192.0, 0.0, 0.0, 0.0, 0.0, 0.0, 0.0, 0.0, 0.0, 0.0, 1.711779642400151E9, 0.0, 2024-03-29 23:20:42.400
250.0, 13167.725583043764, 27119.349195879604, 19862.184806130506, 12037.599031638985, 30987.162111659305, 10193.982445476347, 15652.47960716243, 12488.187848113519, 0.012, -0.048, 1.012, 192.0, 0.0, 0.0, 0.0, 0.0, 0.0, 0.0, 0.0, 0.0, 0.0, 1.711779642405236E9, 0.0, 2024-03-29 23:20:42.405
251.0, 13236.837176899575, 27186.918519368, 19763.21128168241, 12007.602990579962, 30950.952285641706, 10153.615194990063, 15443.133168594024, 12411.342550676174, 0.012, -0.048, 1.012, 192.0, 0.0, 0.0, 0.0, 0.0, 0.0, 0.0, 0.0, 0.0, 0.0, 1.711779642409193E9, 0.0, 2024-03-29 23:20:42.409
252.0, 13170.564254589588, 27150.015789272285, 19762.071342715186, 11965.782876704083, 30981.50712031211, 10137.09725583759, 15484.796820258716, 12388.767288776315, 0.012, -0.048, 1.012, 192.0, 0.0, 0.0, 0.0, 0.0, 0.0, 0.0, 0.0, 0.0, 0.0, 1.711779642413297E9, 0.0, 2024-03-29 23:20:42.413
253.0, 13122.508004010679, 27086.15685536347, 19836.882631407098, 11985.340653102476, 30997.6674315533, 10166.48979979632, 15676.44067721852, 12447.373562738128, 0.012, -0.048, 1.012, 192.0, 0.0, 0.0, 0.0, 0.0, 0.0, 0.0, 0.0, 0.0, 0.0, 1.711779642417204E9, 0.0, 2024-03-29 23:20:42.417
254.0, 13151.632327035944, 27095.87986420153, 19794.01198554182, 12026.892546044892, 31015.571178862, 10187.567494817675, 15669.019898059358, 12483.315167822262, 0.018000000000000002, -0.046, 1.01, 192.0, 0.0, 144.0, 254.0, 144.0, 31.0, 144.0, 0.0, 0.0, 0.0, 1.711779642421356E9, 0.0, 2024-03-29 23:20:42.421
255.0, 13239.04999960065, 27199.90488289653, 19831.853488904657, 12024.836185555005, 30969.99597191763, 10169.999023675802, 15484.305081880699, 12437.248222499875, 0.018000000000000002, -0.046, 1.01, 192.0, 0.0, 0.0, 0.0, 0.0, 0.0, 0.0, 0.0, 0.0, 0.0, 1.71177964242528E9, 0.0, 2024-03-29 23:20:42.425
0.0, 13217.860545857018, 27181.799969887732, 19799.59992165565, 11987.642882781372, 30952.87453566486, 10149.234253076822, 15475.811418987683, 12404.949951761957, 0.018000000000000002, -0.046, 1.01, 192.0, 0.0, 0.0, 0.0, 0.0, 0.0, 0.0, 0.0, 0.0, 0.0, 1.71177964242828E9, 0.0, 2024-03-29 23:20:42.428
1.0, 13130.778149459142, 27091.9459571774, 19832.83696566069, 11971.124943628902, 30997.913300742308, 10149.681287965928, 15638.465063388952, 12428.17341425102, 0.018000000000000002, -0.046, 1.01, 192.0, 0.0, 0.0, 0.0, 0.0, 0.0, 0.0, 0.0, 0.0, 0.0, 1.711779642432379E9, 0.0, 2024-03-29 23:20:42.432
2.0, 13108.582867215022, 27062.016971351743, 19810.596979927657, 11997.27648464161, 31001.958966488717, 10150.217729832857, 15667.142351525112, 12466.059621102766, 0.018000000000000002, -0.046, 1.01, 192.0, 0.0, 0.0, 0.0, 0.0, 0.0, 0.0, 0.0, 0.0, 0.0, 1.711779642437336E9, 0.0, 2024-03-29 23:20:42.437
3.0, 13145.910280455386, 27147.400635171016, 19772.53195912027, 11986.547647303063, 30947.241896062125, 10136.963145370859, 15471.184607885434, 12412.214268709931, 0.018000000000000002, -0.046, 1.01, 192.0, 0.0, 0.0, 0.0, 0.0, 0.0, 0.0, 0.0, 0.0, 0.0, 1.711779642441285E9, 0.0, 2024-03-29 23:20:42.441
4.0, 13140.568213530567, 27136.51533562128, 19725.168612619473, 11944.168739815801, 30913.60252065689, 10105.514240922243, 15405.00109255327, 12354.837340693157, 0.018000000000000002, -0.046, 1.01, 192.0, 0.0, 0.0, 0.0, 0.0, 0.0, 0.0, 0.0, 0.0, 0.0, 1.711779642445433E9, 0.0, 2024-03-29 23:20:42.445
5.0, 13141.618745519967, 27081.306526816672, 19798.52703792179, 11955.903405654837, 30955.713207210687, 10134.459749991865, 15589.872370943114, 12397.618579580616, 0.018000000000000002, -0.046, 1.01, 192.0, 0.0, 0.0, 0.0, 0.0, 0.0, 0.0, 0.0, 0.0, 0.0, 1.71177964244945E9, 0.0, 2024-03-29 23:20:42.449
6.0, 13082.87836109142, 27052.69629391388, 19841.889422165088, 11985.027728680103, 31002.18248393327, 10173.843523722117, 15685.29196802282, 12461.879844889623, 0.018000000000000002, -0.046, 1.01, 192.0, 0.0, 0.0, 0.0, 0.0, 0.0, 0.0, 0.0, 0.0, 0.0, 1.71177964245341E9, 0.0, 2024-03-29 23:20:42.453
7.0, 13163.925786486363, 27109.827352741642, 19775.460037643916, 11976.243493109167, 30934.36729125587, 10122.389807986, 15488.551913327208, 12401.731300560392, 0.018000000000000002, -0.046, 1.01, 192.0, 0.0, 0.0, 0.0, 0.0, 0.0, 0.0, 0.0, 0.0, 0.0, 1.711779642456429E9, 0.0, 2024-03-29 23:20:42.456
8.0, 13210.551525420133, 27164.499719679323, 19725.928571930956, 11966.967519160215, 30921.02329981605, 10130.257622034267, 15404.978740808814, 12370.863541467614, 0.018000000000000002, -0.046, 1.01, 192.0, 0.0, 0.0, 0.0, 0.0, 0.0, 0.0, 0.0, 0.0, 0.0, 1.711779642460425E9, 0.0, 2024-03-29 23:20:42.460
9.0, 13134.086207638527, 27082.40176229498, 19724.833336452644, 11943.632297948874, 30933.02618658855, 10118.880584106515, 15544.185405276467, 12372.025832179288, 0.018000000000000002, -0.048, 1.01, 192.0, 0.0, 144.0, 254.0, 128.0, 31.0, 144.0, 0.0, 0.0, 0.0, 1.711779642465437E9, 0.0, 2024-03-29 23:20:42.465
10.0, 13089.06979430554, 27048.36005548955, 19844.59398324418, 11982.18905713428, 30980.121312155883, 10150.597709488597, 15692.712747181982, 12452.626222685127, 0.018000000000000002, -0.048, 1.01, 192.0, 0.0, 0.0, 0.0, 0.0, 0.0, 0.0, 0.0, 0.0, 0.0, 1.711779642469433E9, 0.0, 2024-03-29 23:20:42.469
11.0, 13157.08615268304, 27127.731100050343, 19829.14892782556, 12008.765281291639, 30945.69962569471, 10162.91352068347, 15556.255347282333, 12448.312336005252, 0.018000000000000002, -0.048, 1.01, 192.0, 0.0, 0.0, 0.0, 0.0, 0.0, 0.0, 0.0, 0.0, 0.0, 1.711779642473466E9, 0.0, 2024-03-29 23:20:42.473
12.0, 13216.273572000691, 27175.876757607075, 19740.61366803809, 11982.926664701303, 30923.32552949495, 10134.86208139206, 15402.229476240813, 12386.375652119596, 0.018000000000000002, -0.048, 1.01, 192.0, 0.0, 0.0, 0.0, 0.0, 0.0, 0.0, 0.0, 0.0, 0.0, 1.711779642477583E9, 0.0, 2024-03-29 23:20:42.477
13.0, 13127.559498257579, 27101.78072473773, 19775.8176655552, 11939.229004291177, 30936.46835523467, 10116.734816638806, 15505.382776902054, 12371.936425201468, 0.018000000000000002, -0.048, 1.01, 192.0, 0.0, 0.0, 0.0, 0.0, 0.0, 0.0, 0.0, 0.0, 0.0, 1.711779642480455E9, 0.0, 2024-03-29 23:20:42.480
14.0, 13041.237061171183, 27032.199744248363, 19811.714567150422, 11948.929661384782, 30962.955172414207, 10133.923308124937, 15657.419342687053, 12423.859527571145, 0.018000000000000002, -0.048, 1.01, 192.0, 0.0, 0.0, 0.0, 0.0, 0.0, 0.0, 0.0, 0.0, 0.0, 1.711779642484531E9, 0.0, 2024-03-29 23:20:42.484
15.0, 13126.039579634617, 27085.79922745219, 19748.19090940844, 11986.212371136233, 30952.94159089823, 10149.05543912118, 15562.580890963185, 12430.386236952096, 0.018000000000000002, -0.048, 1.01, 192.0, 0.0, 0.0, 0.0, 0.0, 0.0, 0.0, 0.0, 0.0, 0.0, 1.711779642488635E9, 0.0, 2024-03-29 23:20:42.488
16.0, 13179.482600627256, 27142.639713602035, 19687.237702278817, 11954.629356220885, 30892.860101802362, 10110.945714824882, 15367.13723744598, 12351.149302858032, 0.018000000000000002, -0.048, 1.01, 192.0, 0.0, 0.0, 0.0, 0.0, 0.0, 0.0, 0.0, 0.0, 0.0, 1.71177964249255E9, 0.0, 2024-03-29 23:20:42.492
17.0, 13114.97546612924, 27076.009163380764, 19674.9442428284, 11910.21643998819, 30894.53648263651, 10074.065336473624, 15429.47625273183, 12320.259192020798, 0.018000000000000002, -0.048, 1.01, 192.0, 0.0, 0.0, 0.0, 0.0, 0.0, 0.0, 0.0, 0.0, 0.0, 1.711779642497687E9, 0.0, 2024-03-29 23:20:42.497
18.0, 13063.611157370944, 27024.242523222274, 19841.956477398453, 11927.986076830159, 30945.543163483522, 10098.786365841195, 15639.895575034092, 12395.763384790826, 0.018000000000000002, -0.048, 1.01, 192.0, 0.0, 0.0, 0.0, 0.0, 0.0, 0.0, 0.0, 0.0, 0.0, 1.71177964250156E9, 0.0, 2024-03-29 23:20:42.501
19.0, 13074.474105176223, 27063.626296952523, 19820.655264932546, 11967.928644171792, 30942.100994837405, 10131.218747045845, 15603.104603660657, 12429.447463684972, 0.01, -0.046, 1.016, 192.0, 0.0, 80.0, 254.0, 144.0, 31.0, 192.0, 0.0, 0.0, 0.0, 1.711779642505681E9, 0.0, 2024-03-29 23:20:42.505
20.0, 13168.485542355245, 27137.163536210483, 19716.71965321537, 11950.159007329823, 30886.400447654778, 10091.276179704211, 15385.890351043983, 12355.217320348898, 0.01, -0.046, 1.016, 192.0, 0.0, 0.0, 0.0, 0.0, 0.0, 0.0, 0.0, 0.0, 0.0, 1.711779642508615E9, 0.0, 2024-03-29 23:20:42.508
21.0, 13136.03080940614, 27095.41047756797, 19690.121077313554, 11909.568239398986, 30875.38103763831, 10063.045926457158, 15403.436470441398, 12319.879212365058, 0.01, -0.046, 1.016, 192.0, 0.0, 0.0, 0.0, 0.0, 0.0, 0.0, 0.0, 0.0, 0.0, 1.711779642512759E9, 0.0, 2024-03-29 23:20:42.512
22.0, 13053.15054096586, 27014.273645195204, 19767.011078239808, 11911.26697197759, 30902.6948693627, 10080.972025510315, 15595.952045434959, 12361.006422162822, 0.01, -0.046, 1.016, 192.0, 0.0, 0.0, 0.0, 0.0, 0.0, 0.0, 0.0, 0.0, 0.0, 1.711779642516669E9, 0.0, 2024-03-29 23:20:42.516
23.0, 13042.309944905037, 27017.000558018754, 19808.898247349054, 11949.60021371844, 30901.666689117756, 10100.641560630986, 15619.242563157388, 12404.16764070602, 0.01, -0.046, 1.016, 192.0, 0.0, 0.0, 0.0, 0.0, 0.0, 0.0, 0.0, 0.0, 0.0, 1.711779642520675E9, 0.0, 2024-03-29 23:20:42.520
24.0, 13121.323361554547, 27118.65629180149, 19717.636074738035, 11947.208577061723, 30870.575412580423, 10089.644502358973, 15412.511278690254, 12352.512759269806, 0.01, -0.046, 1.016, 192.0, 0.0, 0.0, 0.0, 0.0, 0.0, 0.0, 0.0, 0.0, 0.0, 1.711779642524693E9, 0.0, 2024-03-29 23:20:42.524
25.0, 13105.364216013459, 27091.5436257772, 19678.006431818776, 11898.101794493414, 30853.073996671916, 10051.311260618122, 15369.484170613787, 12303.383624957041, 0.01, -0.046, 1.016, 192.0, 0.0, 0.0, 0.0, 0.0, 0.0, 0.0, 0.0, 0.0, 0.0, 1.711779642529763E9, 0.0, 2024-03-29 23:20:42.529
26.0, 13053.038782243584, 27004.01419449022, 19722.15112711801, 11890.323387422966, 30880.276069674026, 10056.005126953736, 15547.068780311201, 12329.19988980292, 0.01, -0.046, 1.016, 192.0, 0.0, 0.0, 0.0, 0.0, 0.0, 0.0, 0.0, 0.0, 0.0, 1.711779642532738E9, 0.0, 2024-03-29 23:20:42.532
27.0, 13047.897881018864, 26995.9228629974, 19790.68157561798, 11936.792664145549, 30916.821171858453, 10103.234362987801, 15629.926697007026, 12395.629274324094, 0.01, -0.046, 1.016, 192.0, 0.0, 0.0, 0.0, 0.0, 0.0, 0.0, 0.0, 0.0, 0.0, 1.71177964253669E9, 0.0, 2024-03-29 23:20:42.536
28.0, 13116.651846963388, 27087.11798037505, 19731.51650804478, 11937.55262345703, 30871.558889336455, 10085.598836612564, 15428.58218295362, 12346.433084777962, 0.01, -0.046, 1.016, 192.0, 0.0, 0.0, 0.0, 0.0, 0.0, 0.0, 0.0, 0.0, 0.0, 1.711779642540831E9, 0.0, 2024-03-29 23:20:42.540
29.0, 13108.851088148485, 27083.854625684577, 19642.087178479098, 11883.282587919544, 30862.148804920773, 10046.684449515873, 15325.384178803466, 12282.730613080337, 0.012, -0.044, 1.014, 192.0, 0.0, 96.0, 254.0, 160.0, 31.0, 176.0, 0.0, 0.0, 0.0, 1.711779642544772E9, 0.0, 2024-03-29 23:20:42.544
30.0, 13023.310962118027, 26998.76153454322, 19708.918894400467, 11861.355526608888, 30881.30424991897, 10038.682525000873, 15494.072794207668, 12297.683930120938, 0.012, -0.044, 1.014, 192.0, 0.0, 0.0, 0.0, 0.0, 0.0, 0.0, 0.0, 0.0, 0.0, 1.71177964254875E9, 0.0, 2024-03-29 23:20:42.548
31.0, 13007.57533402149, 26977.795598244145, 19789.519284906302, 11911.088158021947, 30915.21184625767, 10077.172228952913, 15627.736226050405, 12378.485486326872, 0.012, -0.044, 1.014, 192.0, 0.0, 0.0, 0.0, 0.0, 0.0, 0.0, 0.0, 0.0, 0.0, 1.711779642552763E9, 0.0, 2024-03-29 23:20:42.552
32.0, 13097.630512431922, 27070.801206922675, 19736.67976101396, 11939.050190335536, 30869.994267224585, 10070.42200212741, 15465.529616538242, 12358.704192483925, 0.012, -0.044, 1.014, 192.0, 0.0, 0.0, 0.0, 0.0, 0.0, 0.0, 0.0, 0.0, 0.0, 1.711779642557785E9, 0.0, 2024-03-29 23:20:42.557
33.0, 13106.615913702955, 27086.492131530304, 19617.12027992252, 11884.44487863122, 30822.854438168342, 10033.452216798332, 15306.541658227643, 12279.266092689764, 0.012, -0.044, 1.014, 192.0, 0.0, 0.0, 0.0, 0.0, 0.0, 0.0, 0.0, 0.0, 0.0, 1.711779642560898E9, 0.0, 2024-03-29 23:20:42.560
34.0, 13028.205994153739, 27012.239636449773, 19672.910234082967, 11859.790904497017, 30863.512261332544, 10042.929356447383, 15450.263375075267, 12284.608159614583, 0.012, -0.044, 1.014, 192.0, 0.0, 0.0, 0.0, 0.0, 0.0, 0.0, 0.0, 0.0, 0.0, 1.71177964256486E9, 0.0, 2024-03-29 23:20:42.564
35.0, 12991.258560569117, 26960.42829280237, 19770.095618974643, 11898.347663682422, 30916.329433480434, 10064.163513679923, 15613.252295643366, 12355.73141047137, 0.012, -0.044, 1.014, 192.0, 0.0, 0.0, 0.0, 0.0, 0.0, 0.0, 0.0, 0.0, 0.0, 1.711779642568826E9, 0.0, 2024-03-29 23:20:42.568
36.0, 13047.137921707383, 27042.16862227543, 19743.541746561736, 11933.685771666262, 30899.63268037232, 10074.914702762926, 15500.241875677333, 12358.167750616998, 0.012, -0.044, 1.014, 192.0, 0.0, 0.0, 0.0, 0.0, 0.0, 0.0, 0.0, 0.0, 0.0, 1.711779642572818E9, 0.0, 2024-03-29 23:20:42.572
37.0, 13113.455547506279, 27093.13059963353, 19656.191129230396, 11896.626579359363, 30846.05554891295, 10043.398743080943, 15321.763196201706, 12288.76558408327, 0.012, -0.044, 1.014, 192.0, 0.0, 0.0, 0.0, 0.0, 0.0, 0.0, 0.0, 0.0, 0.0, 1.711779642576875E9, 0.0, 2024-03-29 23:20:42.576
38.0, 13048.188453696783, 27030.389252947483, 19673.491379438805, 11862.271948131556, 30871.089502702893, 10036.335591833067, 15419.95440959387, 12280.517790379261, 0.012, -0.044, 1.014, 192.0, 0.0, 0.0, 0.0, 0.0, 0.0, 0.0, 0.0, 0.0, 0.0, 1.711779642580901E9, 0.0, 2024-03-29 23:20:42.580
39.0, 12947.538548414535, 26958.52839452367, 19716.607894493092, 11874.990090726626, 30875.78336903851, 10039.17426337889, 15577.534208003784, 12333.647886949526, 0.012, -0.044, 1.014, 192.0, 0.0, 0.0, 0.0, 0.0, 0.0, 0.0, 0.0, 0.0, 0.0, 1.711779642585896E9, 0.0, 2024-03-29 23:20:42.585
40.0, 13032.095197688961, 27013.938369028376, 19716.13850785953, 11923.60513491692, 30846.18965937968, 10049.165493150413, 15516.491593896342, 12358.234805850365, 0.018000000000000002, -0.052000000000000005, 1.018, 192.0, 0.0, 144.0, 254.0, 96.0, 31.0, 208.0, 0.0, 0.0, 0.0, 1.711779642588922E9, 0.0, 2024-03-29 23:20:42.588
41.0, 13129.45939653628, 27100.08199215913, 19691.618644192058, 11904.382634685355, 30819.23345556658, 10046.617394282508, 15337.163548131413, 12302.802479601203, 0.018000000000000002, -0.052000000000000005, 1.018, 192.0, 0.0, 0.0, 0.0, 0.0, 0.0, 0.0, 0.0, 0.0, 0.0, 1.711779642591956E9, 0.0, 2024-03-29 23:20:42.591
42.0, 13024.495604574156, 27026.54475290117, 19686.209522033874, 11841.641287999308, 30806.470609482603, 10002.673864683375, 15371.115847959025, 12258.18839766841, 0.018000000000000002, -0.052000000000000005, 1.018, 192.0, 0.0, 0.0, 0.0, 0.0, 0.0, 0.0, 0.0, 0.0, 0.0, 1.711779642596933E9, 0.0, 2024-03-29 23:20:42.596
43.0, 12960.681374154256, 26941.42931001536, 19737.774996492266, 11851.476055559642, 30849.6318280258, 10004.17143156188, 15554.064876325712, 12301.215505744876, 0.018000000000000002, -0.052000000000000005, 1.018, 192.0, 0.0, 0.0, 0.0, 0.0, 0.0, 0.0, 0.0, 0.0, 0.0, 1.711779642600995E9, 0.0, 2024-03-29 23:20:42.600
44.0, 13018.572392293501, 26986.24455764825, 19732.745853989825, 11917.033722047057, 30879.851386529375, 10044.583385537075, 15552.813178636216, 12354.502064526328, 0.018000000000000002, -0.052000000000000005, 1.018, 192.0, 0.0, 0.0, 0.0, 0.0, 0.0, 0.0, 0.0, 0.0, 0.0, 1.711779642605087E9, 0.0, 2024-03-29 23:20:42.605
45.0, 13090.701471650777, 27064.296849286184, 19651.877242550523, 11895.01725375858, 30793.171321531692, 10016.286077056657, 15329.69806548334, 12282.48474389133, 0.018000000000000002, -0.052000000000000005, 1.018, 192.0, 0.0, 0.0, 0.0, 0.0, 0.0, 0.0, 0.0, 0.0, 0.0, 1.711779642609035E9, 0.0, 2024-03-29 23:20:42.609
46.0, 13040.700619304254, 27021.00152027625, 19605.184448383385, 11841.507177532576, 30790.980850575073, 10002.875030383471, 15320.444443278844, 12238.80943522566, 0.018000000000000002, -0.052000000000000005, 1.018, 192.0, 0.0, 0.0, 0.0, 0.0, 0.0, 0.0, 0.0, 0.0, 0.0, 1.711779642613096E9, 0.0, 2024-03-29 23:20:42.613
47.0, 12975.724098172677, 26947.956019396308, 19723.268714340775, 11847.72096249115, 30837.494830786567, 10001.288056527144, 15530.975524303381, 12288.966749783367, 0.018000000000000002, -0.052000000000000005, 1.018, 192.0, 0.0, 0.0, 0.0, 0.0, 0.0, 0.0, 0.0, 0.0, 0.0, 1.711779642617055E9, 0.0, 2024-03-29 23:20:42.617
48.0, 12979.166266818795, 26953.275734576673, 19730.309513844197, 11890.524553123065, 30848.53659254749, 10020.376446291977, 15561.306841529233, 12339.928727141469, 0.018000000000000002, -0.052000000000000005, 1.018, 192.0, 0.0, 0.0, 0.0, 0.0, 0.0, 0.0, 0.0, 0.0, 0.0, 1.711779642620177E9, 0.0, 2024-03-29 23:20:42.620
49.0, 13064.72874459371, 27065.861471398053, 19649.575012871624, 11897.900628793315, 30840.06528139893, 10039.151911634435, 15365.259690911735, 12300.14262201102, 0.018000000000000002, -0.052000000000000005, 1.018, 192.0, 0.0, 0.0, 0.0, 0.0, 0.0, 0.0, 0.0, 0.0, 0.0, 1.711779642624082E9, 0.0, 2024-03-29 23:20:42.624
50.0, 13011.352778834436, 27031.462136681337, 19567.521758976192, 11831.180671594224, 30791.785513375464, 10002.383292005456, 15295.79046914464, 12233.84734795658, 0.014, -0.05, 1.016, 192.0, 0.0, 112.0, 254.0, 112.0, 31.0, 192.0, 0.0, 0.0, 0.0, 1.711779642629137E9, 0.0, 2024-03-29 23:20:42.629
51.0, 12989.42571752378, 26951.241725831238, 19696.714841927867, 11826.95619189217, 30813.556112474933, 9979.07042253857, 15480.482933578842, 12265.832694272125, 0.014, -0.05, 1.016, 192.0, 0.0, 0.0, 0.0, 0.0, 0.0, 0.0, 0.0, 0.0, 0.0, 1.711779642633098E9, 0.0, 2024-03-29 23:20:42.633
52.0, 12967.94569110223, 26936.824850657566, 19761.691363059446, 11869.580968568442, 30848.29072335848, 10009.133518830959, 15571.208664322934, 12331.926802626467, 0.014, -0.05, 1.016, 192.0, 0.0, 0.0, 0.0, 0.0, 0.0, 0.0, 0.0, 0.0, 0.0, 1.711779642637183E9, 0.0, 2024-03-29 23:20:42.637
53.0, 13055.676288089311, 27030.54571515867, 19669.8927485815, 11879.192218684224, 30806.425905993692, 10019.437673024855, 15376.56967360612, 12287.871514305058, 0.014, -0.05, 1.016, 192.0, 0.0, 0.0, 0.0, 0.0, 0.0, 0.0, 0.0, 0.0, 0.0, 1.711779642640154E9, 0.0, 2024-03-29 23:20:42.640
54.0, 13059.610195113444, 27037.58651466209, 19601.675224503902, 11834.86870942935, 30763.957591528608, 9991.185068033346, 15278.69138463633, 12229.488757787796, 0.014, -0.05, 1.016, 192.0, 0.0, 0.0, 0.0, 0.0, 0.0, 0.0, 0.0, 0.0, 0.0, 1.7117796426442E9, 0.0, 2024-03-29 23:20:42.644
55.0, 12968.124505057873, 26953.923935165876, 19646.915155281444, 11806.213773037645, 30801.106190813327, 9981.283245239645, 15427.53165096422, 12237.04364741369, 0.014, -0.05, 1.016, 192.0, 0.0, 0.0, 0.0, 0.0, 0.0, 0.0, 0.0, 0.0, 0.0, 1.711779642648197E9, 0.0, 2024-03-29 23:20:42.648
56.0, 12932.138196484828, 26920.351614994004, 19709.56709498967, 11845.686953745719, 30841.607551766345, 10013.782681677661, 15552.008515835825, 12307.116366281078, 0.014, -0.05, 1.016, 192.0, 0.0, 0.0, 0.0, 0.0, 0.0, 0.0, 0.0, 0.0, 0.0, 1.711779642652241E9, 0.0, 2024-03-29 23:20:42.652
57.0, 13000.154554862327, 27009.624482348503, 19674.36309747256, 11872.710212792184, 30818.562903232923, 10011.301638043124, 15408.19739201038, 12291.157220739988, 0.014, -0.05, 1.016, 192.0, 0.0, 0.0, 0.0, 0.0, 0.0, 0.0, 0.0, 0.0, 0.0, 1.711779642656246E9, 0.0, 2024-03-29 23:20:42.656
58.0, 13027.557793564534, 27038.25706699575, 19579.099962604043, 11832.611183239364, 30798.871016367797, 9974.644777136418, 15262.06168676158, 12224.884298430003, 0.014, -0.05, 1.016, 192.0, 0.0, 0.0, 0.0, 0.0, 0.0, 0.0, 0.0, 0.0, 0.0, 1.711779642661254E9, 0.0, 2024-03-29 23:20:42.661
59.0, 13001.249790340638, 26969.793673729146, 19630.21840217333, 11810.795880650983, 30799.3180512569, 9985.328910986056, 15392.66292961394, 12231.209842110855, 0.014, -0.05, 1.016, 192.0, 0.0, 0.0, 0.0, 0.0, 0.0, 0.0, 0.0, 0.0, 0.0, 1.711779642665192E9, 0.0, 2024-03-29 23:20:42.665
60.0, 12923.622181847357, 26899.8997688174, 19700.112307085074, 11828.565517492952, 30831.39280455027, 9989.486335454743, 15537.211661006411, 12284.474049147851, 0.01, -0.05, 1.012, 192.0, 0.0, 80.0, 254.0, 112.0, 31.0, 160.0, 0.0, 0.0, 0.0, 1.71177964266825E9, 0.0, 2024-03-29 23:20:42.668
61.0, 12983.99424362114, 26974.57694704258, 19663.388390945005, 11860.975546953148, 30804.816580392908, 10000.662207682397, 15430.48208123232, 12289.503191650296, 0.01, -0.05, 1.012, 192.0, 0.0, 0.0, 0.0, 0.0, 0.0, 0.0, 0.0, 0.0, 0.0, 1.711779642672245E9, 0.0, 2024-03-29 23:20:42.672
62.0, 13041.728799549199, 27030.43395643639, 19569.756933421726, 11829.14666284879, 30758.48141413706, 9969.727393356252, 15252.562195368077, 12220.36924605003, 0.01, -0.05, 1.012, 192.0, 0.0, 0.0, 0.0, 0.0, 0.0, 0.0, 0.0, 0.0, 0.0, 1.711779642676291E9, 0.0, 2024-03-29 23:20:42.676
63.0, 12992.085575113962, 26975.448665076336, 19631.82772777411, 11801.586961935398, 30787.069295295394, 9970.353242201, 15355.916661729416, 12218.201126837866, 0.01, -0.05, 1.012, 192.0, 0.0, 0.0, 0.0, 0.0, 0.0, 0.0, 0.0, 0.0, 0.0, 1.711779642680239E9, 0.0, 2024-03-29 23:20:42.680
64.0, 12916.290809666016, 26895.80939958208, 19688.712917412868, 11807.934857360704, 30827.05656612594, 9976.567027159575, 15518.838527064148, 12266.436191372419, 0.01, -0.05, 1.012, 192.0, 0.0, 0.0, 0.0, 0.0, 0.0, 0.0, 0.0, 0.0, 0.0, 1.71177964268429E9, 0.0, 2024-03-29 23:20:42.684
65.0, 12959.742600887133, 26951.75581595371, 19670.384486959516, 11852.101904404391, 30796.591138433356, 10006.943047874338, 15460.053439146692, 12292.274807962753, 0.01, -0.05, 1.012, 192.0, 0.0, 0.0, 0.0, 0.0, 0.0, 0.0, 0.0, 0.0, 0.0, 1.711779642689466E9, 0.0, 2024-03-29 23:20:42.689
66.0, 13013.029159668586, 27024.06370926663, 19549.81917736759, 11825.749197691584, 30754.838079790843, 9983.183143518347, 15253.903300035394, 12218.89403091598, 0.01, -0.05, 1.012, 192.0, 0.0, 0.0, 0.0, 0.0, 0.0, 0.0, 0.0, 0.0, 0.0, 1.711779642693365E9, 0.0, 2024-03-29 23:20:42.693
67.0, 12946.42096119177, 26961.031789902663, 19527.512136401194, 11773.244949966067, 30749.250143677014, 9939.06079996357, 15292.236541776247, 12185.299358999653, 0.01, -0.05, 1.012, 192.0, 0.0, 0.0, 0.0, 0.0, 0.0, 0.0, 0.0, 0.0, 0.0, 1.711779642696377E9, 0.0, 2024-03-29 23:20:42.696
68.0, 12911.194611930207, 26875.044628983098, 19642.780082557212, 11784.599636149364, 30776.18399574566, 9952.091866981014, 15471.408125329986, 12230.271068843731, 0.01, -0.05, 1.012, 192.0, 0.0, 0.0, 0.0, 0.0, 0.0, 0.0, 0.0, 0.0, 0.0, 1.711779642700335E9, 0.0, 2024-03-29 23:20:42.700
69.0, 12955.920452585275, 26914.718975391268, 19700.13465882953, 11843.988221167116, 30799.42980997918, 9983.898399340917, 15484.327433625154, 12288.385604427529, 0.01, -0.05, 1.012, 192.0, 0.0, 0.0, 0.0, 0.0, 0.0, 0.0, 0.0, 0.0, 0.0, 1.711779642704505E9, 0.0, 2024-03-29 23:20:42.704
70.0, 13026.350799363947, 27004.43887763487, 19603.01632917122, 11830.666581471753, 30755.396873402224, 9963.4018496754, 15282.133553282447, 12225.979533908312, 0.01, -0.05, 1.012, 192.0, 0.0, 0.0, 0.0, 0.0, 0.0, 0.0, 0.0, 0.0, 0.0, 1.711779642708477E9, 0.0, 2024-03-29 23:20:42.708
71.0, 12936.139158742328, 26951.241725831238, 19512.71528157178, 11753.3742491453, 30751.485318122544, 9916.753758997174, 15243.934422008328, 12160.98066103228, 0.012, -0.05, 1.012, 192.0, 0.0, 96.0, 254.0, 112.0, 31.0, 160.0, 0.0, 0.0, 0.0, 1.711779642712523E9, 0.0, 2024-03-29 23:20:42.712
72.0, 12894.542562311002, 26890.020297768155, 19645.059960491653, 11773.244949966067, 30768.7632165865, 9933.986953972215, 15450.77746519774, 12220.302190816665, 0.012, -0.05, 1.012, 192.0, 0.0, 0.0, 0.0, 0.0, 0.0, 0.0, 0.0, 0.0, 0.0, 1.711779642717417E9, 0.0, 2024-03-29 23:20:42.717
73.0, 12921.074082979452, 26885.08056224353, 19646.870451792533, 11818.663694699251, 30759.42018740418, 9958.573872873054, 15488.127230182557, 12270.504208863284, 0.012, -0.05, 1.012, 192.0, 0.0, 0.0, 0.0, 0.0, 0.0, 0.0, 0.0, 0.0, 0.0, 1.711779642721631E9, 0.0, 2024-03-29 23:20:42.721
74.0, 12991.035043124562, 26981.371877356993, 19584.956119651335, 11816.875555142828, 30737.493126093523, 9951.644832091908, 15289.196704530324, 12218.156423348955, 0.012, -0.05, 1.012, 192.0, 0.0, 0.0, 0.0, 0.0, 0.0, 0.0, 0.0, 0.0, 0.0, 1.711779642724517E9, 0.0, 2024-03-29 23:20:42.724
75.0, 12980.99910986413, 26970.955964440822, 19547.516947688695, 11771.56856913192, 30751.977056500564, 9929.404846358877, 15232.400921869388, 12168.021460535701, 0.012, -0.05, 1.012, 192.0, 0.0, 0.0, 0.0, 0.0, 0.0, 0.0, 0.0, 0.0, 0.0, 1.71177964272855E9, 0.0, 2024-03-29 23:20:42.728
76.0, 12903.058576948473, 26889.90853904588, 19585.269044073706, 11756.414086391222, 30776.921603312687, 9925.560346312564, 15394.160496492446, 12190.775536391204, 0.012, -0.05, 1.012, 192.0, 0.0, 0.0, 0.0, 0.0, 0.0, 0.0, 0.0, 0.0, 0.0, 1.711779642732454E9, 0.0, 2024-03-29 23:20:42.732
77.0, 12885.870085462342, 26870.93190800332, 19659.432132176415, 11801.00581657956, 30770.037266020452, 9947.599166345497, 15487.63549180454, 12260.490627347306, 0.012, -0.05, 1.012, 192.0, 0.0, 0.0, 0.0, 0.0, 0.0, 0.0, 0.0, 0.0, 0.0, 1.711779642736458E9, 0.0, 2024-03-29 23:20:42.736
78.0, 12962.536568944046, 26955.04152238864, 19572.617956712005, 11806.169069548736, 30725.8031637434, 9944.000535488192, 15305.468774493787, 12216.211821581343, 0.012, -0.05, 1.012, 192.0, 0.0, 0.0, 0.0, 0.0, 0.0, 0.0, 0.0, 0.0, 0.0, 1.711779642740509E9, 0.0, 2024-03-29 23:20:42.740
79.0, 12952.813560105988, 26944.044464116632, 19509.250761181207, 11743.762999029517, 30680.205605054573, 9893.083261619004, 15187.317453303034, 12135.566727586596, 0.012, -0.05, 1.012, 192.0, 0.0, 0.0, 0.0, 0.0, 0.0, 0.0, 0.0, 0.0, 0.0, 1.71177964274465E9, 0.0, 2024-03-29 23:20:42.744
80.0, 12857.59512872638, 26846.25558212466, 19546.15349127692, 11701.831126431362, 30682.820759155842, 9865.300043261057, 15308.061576850603, 12126.44721584883, 0.012, -0.05, 1.012, 192.0, 0.0, 0.0, 0.0, 0.0, 0.0, 0.0, 0.0, 0.0, 0.0, 1.711779642749856E9, 0.0, 2024-03-29 23:20:42.749
81.0, 12830.393055724271, 26834.677378496814, 19586.40898304093, 11760.347993415357, 30766.23746946305, 9923.481634078222, 15455.024296644247, 12220.950391405868, 0.014, -0.048, 1.018, 192.0, 0.0, 112.0, 254.0, 128.0, 31.0, 208.0, 0.0, 0.0, 0.0, 1.711779642752601E9, 0.0, 2024-03-29 23:20:42.752
82.0, 12941.302411711504, 26935.774318668166, 19589.35941330903, 11806.169069548736, 30745.785623286443, 9947.86738727896, 15346.707743013829, 12228.840557198591, 0.014, -0.048, 1.018, 192.0, 0.0, 0.0, 0.0, 0.0, 0.0, 0.0, 0.0, 0.0, 0.0, 1.711779642756583E9, 0.0, 2024-03-29 23:20:42.756
83.0, 12979.300377285526, 26959.109539879508, 19518.95141827481, 11763.745458572563, 30694.398962783693, 9900.772261711629, 15191.631339982909, 12150.341230671553, 0.014, -0.048, 1.018, 192.0, 0.0, 0.0, 0.0, 0.0, 0.0, 0.0, 0.0, 0.0, 0.0, 1.711779642760716E9, 0.0, 2024-03-29 23:20:42.760
84.0, 12910.41230087427, 26892.18841698032, 19571.00863111122, 11736.766903015006, 30713.107372892784, 9883.00262486966, 15314.476527509276, 12152.486998139262, 0.014, -0.048, 1.018, 192.0, 0.0, 0.0, 0.0, 0.0, 0.0, 0.0, 0.0, 0.0, 0.0, 1.711779642764794E9, 0.0, 2024-03-29 23:20:42.764
85.0, 12841.926555863209, 26832.442204051284, 19603.418660571417, 11756.861121280328, 30746.389120386735, 9911.210526372257, 15457.01360190077, 12211.406196523452, 0.014, -0.048, 1.018, 192.0, 0.0, 0.0, 0.0, 0.0, 0.0, 0.0, 0.0, 0.0, 0.0, 1.711779642768801E9, 0.0, 2024-03-29 23:20:42.768
86.0, 12913.519193353557, 26896.03291702663, 19607.710195506836, 11792.04276705298, 30742.097585451316, 9929.874232992439, 15358.956498975338, 12218.536403004695, 0.014, -0.048, 1.018, 192.0, 0.0, 0.0, 0.0, 0.0, 0.0, 0.0, 0.0, 0.0, 0.0, 1.711779642772655E9, 0.0, 2024-03-29 23:20:42.772
87.0, 12975.455877239214, 26960.517699780194, 19509.183705947842, 11763.209016705636, 30717.398907828203, 9908.48361354871, 15182.757697434152, 12153.045791750645, 0.014, -0.048, 1.018, 192.0, 0.0, 0.0, 0.0, 0.0, 0.0, 0.0, 0.0, 0.0, 0.0, 1.711779642776692E9, 0.0, 2024-03-29 23:20:42.776
88.0, 12900.532829825024, 26883.22536745374, 19481.646356778903, 11714.79513821544, 30690.867387159753, 9874.24074104318, 15241.989820240715, 12121.082797179557, 0.014, -0.048, 1.018, 192.0, 0.0, 0.0, 0.0, 0.0, 0.0, 0.0, 0.0, 0.0, 0.0, 1.711779642779703E9, 0.0, 2024-03-29 23:20:42.779
89.0, 12812.48930841557, 26793.88544486588, 19526.841584067533, 11704.848611932828, 30689.7945034259, 9869.837447385484, 15387.90200804496, 12154.185730717867, 0.014, -0.048, 1.018, 192.0, 0.0, 0.0, 0.0, 0.0, 0.0, 0.0, 0.0, 0.0, 0.0, 1.711779642783704E9, 0.0, 2024-03-29 23:20:42.783
90.0, 12878.918692936742, 26873.927041760333, 19616.919114222423, 11774.85427556685, 30742.254047662504, 9920.508852065666, 15377.508446873242, 12217.463519270841, 0.014, -0.048, 1.018, 192.0, 0.0, 0.0, 0.0, 0.0, 0.0, 0.0, 0.0, 0.0, 0.0, 1.711779642788885E9, 0.0, 2024-03-29 23:20:42.788
91.0, 12927.489033638125, 26919.390489982427, 19489.402412104897, 11732.855347735329, 30668.87327061573, 9875.894770132873, 15166.709144915241, 12124.100282681024, 0.014, -0.05, 1.018, 192.0, 0.0, 112.0, 254.0, 112.0, 31.0, 208.0, 0.0, 0.0, 0.0, 1.711779642792799E9, 0.0, 2024-03-29 23:20:42.792
92.0, 12881.846771460388, 26873.480006871225, 19467.318888583053, 11690.49879199252, 30649.7848808509, 9863.891883360373, 15187.809191681052, 12091.757308454193, 0.014, -0.05, 1.018, 192.0, 0.0, 0.0, 0.0, 0.0, 0.0, 0.0, 0.0, 0.0, 0.0, 1.711779642796751E9, 0.0, 2024-03-29 23:20:42.796
93.0, 12831.220070269117, 26808.59289271747, 19534.083549271054, 11710.704768980118, 30717.51066655048, 9878.24170330068, 15387.119696989024, 12153.40341966193, 0.014, -0.05, 1.018, 192.0, 0.0, 0.0, 0.0, 0.0, 0.0, 0.0, 0.0, 0.0, 0.0, 1.711779642800733E9, 0.0, 2024-03-29 23:20:42.800
94.0, 12843.11119831934, 26840.958218688753, 19594.50031453375, 11761.867912038317, 30732.732204524542, 9911.769319983641, 15411.885429845504, 12210.176850578411, 0.014, -0.05, 1.018, 192.0, 0.0, 0.0, 0.0, 0.0, 0.0, 0.0, 0.0, 0.0, 0.0, 1.711779642803915E9, 0.0, 2024-03-29 23:20:42.803
95.0, 12897.962379212664, 26931.169859310372, 19524.651113110915, 11747.451036864644, 30684.318326034347, 9911.858726961462, 15206.808174468062, 12146.921413769891, 0.014, -0.05, 1.018, 192.0, 0.0, 0.0, 0.0, 0.0, 0.0, 0.0, 0.0, 0.0, 0.0, 1.711779642807808E9, 0.0, 2024-03-29 23:20:42.807
96.0, 12941.816501833977, 26899.18451299483, 19501.38294713294, 11709.274257334979, 30669.677933416122, 9875.067755588027, 15192.81598243904, 12105.146003382923, 0.014, -0.05, 1.018, 192.0, 0.0, 0.0, 0.0, 0.0, 0.0, 0.0, 0.0, 0.0, 0.0, 1.711779642812014E9, 0.0, 2024-03-29 23:20:42.812
97.0, 12840.138416306785, 26818.31590155553, 19565.666564186402, 11695.706748450608, 30684.608898712268, 9861.120267047914, 15361.124618187503, 12133.599774074528, 0.014, -0.05, 1.018, 192.0, 0.0, 0.0, 0.0, 0.0, 0.0, 0.0, 0.0, 0.0, 0.0, 1.711779642815824E9, 0.0, 2024-03-29 23:20:42.815
98.0, 12791.344558160848, 26789.63861341937, 19557.709343160313, 11715.353931826823, 30677.612802697757, 9859.153313535848, 15383.811638809639, 12166.45683842383, 0.014, -0.05, 1.018, 192.0, 0.0, 0.0, 0.0, 0.0, 0.0, 0.0, 0.0, 0.0, 0.0, 1.711779642820809E9, 0.0, 2024-03-29 23:20:42.820
99.0, 12863.294823562483, 26880.565509863558, 19472.23627236322, 11719.243135362047, 30641.380624935704, 9860.717935647719, 15193.017148139137, 12115.293695365632, 0.014, -0.05, 1.018, 192.0, 0.0, 0.0, 0.0, 0.0, 0.0, 0.0, 0.0, 0.0, 0.0, 1.711779642824866E9, 0.0, 2024-03-29 23:20:42.824
100.0, 12919.442405634214, 26891.920196046853, 19462.692077480802, 11696.131431595259, 30653.49527043048, 9851.62077565441, 15155.756790132142, 12084.381232783942, 0.014, -0.05, 1.018, 192.0, 0.0, 0.0, 0.0, 0.0, 0.0, 0.0, 0.0, 0.0, 0.0, 1.711779642828951E9, 0.0, 2024-03-29 23:20:42.828
101.0, 12831.555346435947, 26807.810581661535, 19523.77939507716, 11672.773858639463, 30676.27169803044, 9839.841406326463, 15320.019760134193, 12102.262628348188, 0.014, -0.05, 1.018, 192.0, 0.0, 0.0, 0.0, 0.0, 0.0, 0.0, 0.0, 0.0, 0.0, 1.71177964283195E9, 0.0, 2024-03-29 23:20:42.831
102.0, 12807.907200802232, 26779.8709010924, 19559.095151316542, 11711.621190502787, 30688.98984062551, 9861.76846763712, 15413.159479279457, 12167.26150122422, 0.018000000000000002, -0.05, 1.018, 192.0, 0.0, 144.0, 254.0, 112.0, 31.0, 208.0, 0.0, 0.0, 0.0, 1.711779642835885E9, 0.0, 2024-03-29 23:20:42.835
103.0, 12882.942006938698, 26867.869719012942, 19509.362519903483, 11725.881603465272, 30662.50302344597, 9864.629490927398, 15240.78282604013, 12133.73388454126, 0.018000000000000002, -0.05, 1.018, 192.0, 0.0, 0.0, 0.0, 0.0, 0.0, 0.0, 0.0, 0.0, 0.0, 1.711779642839915E9, 0.0, 2024-03-29 23:20:42.839
104.0, 12899.057614690973, 26880.744323819203, 19452.633792475914, 11685.894332634727, 30662.01128506795, 9829.269031199103, 15134.455577666233, 12069.584377954528, 0.018000000000000002, -0.05, 1.018, 192.0, 0.0, 0.0, 0.0, 0.0, 0.0, 0.0, 0.0, 0.0, 0.0, 1.711779642844014E9, 0.0, 2024-03-29 23:20:42.844
105.0, 12810.477651414592, 26794.421886732805, 19489.29065338262, 11652.59023339632, 30636.77616557791, 9814.673342069787, 15266.040297274627, 12067.371555253454, 0.018000000000000002, -0.05, 1.018, 192.0, 0.0, 0.0, 0.0, 0.0, 0.0, 0.0, 0.0, 0.0, 0.0, 1.711779642848902E9, 0.0, 2024-03-29 23:20:42.848
106.0, 12754.665345509691, 26731.702891791214, 19525.411072422394, 11668.705841148596, 30645.515697659936, 9828.263202698614, 15371.473475870309, 12119.406416345408, 0.018000000000000002, -0.05, 1.018, 192.0, 0.0, 0.0, 0.0, 0.0, 0.0, 0.0, 0.0, 0.0, 0.0, 1.711779642853058E9, 0.0, 2024-03-29 23:20:42.853
107.0, 12815.327979961394, 26805.15072407135, 19501.181781432842, 11691.281103048457, 30606.57895881879, 9825.156310219325, 15238.3464858945, 12105.280113849654, 0.018000000000000002, -0.05, 1.018, 192.0, 0.0, 0.0, 0.0, 0.0, 0.0, 0.0, 0.0, 0.0, 0.0, 1.71177964285697E9, 0.0, 2024-03-29 23:20:42.856
108.0, 12848.430913499704, 26858.280820641616, 19404.577541897004, 11659.11694277727, 30624.81798229432, 9807.163155932803, 15093.216609146191, 12043.76811310865, 0.018000000000000002, -0.05, 1.018, 192.0, 0.0, 0.0, 0.0, 0.0, 0.0, 0.0, 0.0, 0.0, 0.0, 1.711779642860053E9, 0.0, 2024-03-29 23:20:42.860
109.0, 12758.018107177986, 26804.279006037596, 19381.041154985567, 11637.949840778094, 30639.81600282383, 9814.583935091965, 15210.429157069822, 12049.177235266834, 0.018000000000000002, -0.05, 1.018, 192.0, 0.0, 0.0, 0.0, 0.0, 0.0, 0.0, 0.0, 0.0, 0.0, 1.711779642864139E9, 0.0, 2024-03-29 23:20:42.864
110.0, 12729.407874275194, 26733.71454879219, 19461.865062935958, 11660.5027509335, 30654.88107858671, 9821.736493317663, 15363.784475777684, 12106.956494683802, 0.018000000000000002, -0.05, 1.018, 192.0, 0.0, 0.0, 0.0, 0.0, 0.0, 0.0, 0.0, 0.0, 0.0, 1.711779642868092E9, 0.0, 2024-03-29 23:20:42.868
111.0, 12876.147076624284, 26829.044738894077, 19590.812276698623, 11729.480234322577, 30662.391264723694, 9850.547891920554, 15314.878858909471, 12154.275137695688, 0.018000000000000002, -0.05, 1.018, 192.0, 0.0, 0.0, 0.0, 0.0, 0.0, 0.0, 0.0, 0.0, 0.0, 1.711779642872127E9, 0.0, 2024-03-29 23:20:42.872
112.0, 12917.60956258888, 26885.32643143254, 19479.411182333373, 11694.298588549924, 30606.8248280078, 9810.828842023473, 15128.442958407755, 12075.328776279543, 0.024, -0.044, 1.018, 192.0, 0.0, 192.0, 254.0, 160.0, 31.0, 208.0, 0.0, 0.0, 0.0, 1.711779642876148E9, 0.0, 2024-03-29 23:20:42.876
113.0, 12833.723465648112, 26810.470439251716, 19455.874795421936, 11634.820596554351, 30573.85600493622, 9777.368280573879, 15175.783953164097, 12039.00719153967, 0.024, -0.044, 1.018, 192.0, 0.0, 0.0, 0.0, 0.0, 0.0, 0.0, 0.0, 0.0, 0.0, 1.711779642881129E9, 0.0, 2024-03-29 23:20:42.881
114.0, 12757.682831011158, 26735.72620579317, 19481.42283933435, 11639.670925101153, 30623.745098560466, 9789.192353390736, 15330.860356195017, 12088.806878186093, 0.024, -0.044, 1.018, 192.0, 0.0, 0.0, 0.0, 0.0, 0.0, 0.0, 0.0, 0.0, 0.0, 1.711779642884145E9, 0.0, 2024-03-29 23:20:42.884
115.0, 12805.895543801254, 26794.421886732805, 19506.23327567974, 11700.221800830579, 30639.59248537928, 9833.940545790261, 15317.046978121636, 12141.579346845074, 0.024, -0.044, 1.018, 192.0, 0.0, 0.0, 0.0, 0.0, 0.0, 0.0, 0.0, 0.0, 0.0, 1.711779642888223E9, 0.0, 2024-03-29 23:20:42.888
116.0, 12855.44936125867, 26857.274992141127, 19439.71448418075, 11658.73696312153, 30583.57901377428, 9807.856060010918, 15108.75107154263, 12057.536787693118, 0.024, -0.044, 1.018, 192.0, 0.0, 0.0, 0.0, 0.0, 0.0, 0.0, 0.0, 0.0, 0.0, 1.711779642892188E9, 0.0, 2024-03-29 23:20:42.892
117.0, 12820.021846297008, 26810.828067163002, 19434.484175978207, 11621.25308766998, 30584.696600997046, 9780.78809747554, 15142.166929503313, 12027.764264078649, 0.024, -0.044, 1.018, 192.0, 0.0, 0.0, 0.0, 0.0, 0.0, 0.0, 0.0, 0.0, 0.0, 1.711779642896218E9, 0.0, 2024-03-29 23:20:42.896
118.0, 12739.421455791171, 26732.44049935824, 19497.493743597715, 11618.973209735539, 30610.401107120648, 9783.090327154438, 15307.100451839025, 12067.997404098202, 0.024, -0.044, 1.018, 192.0, 0.0, 0.0, 0.0, 0.0, 0.0, 0.0, 0.0, 0.0, 0.0, 1.711779642900199E9, 0.0, 2024-03-29 23:20:42.900
119.0, 12746.104627383307, 26748.10907222141, 19492.03991795062, 11661.128599778247, 30654.724616375523, 9824.530461374577, 15307.346321028033, 12112.58913428654, 0.024, -0.044, 1.018, 192.0, 0.0, 0.0, 0.0, 0.0, 0.0, 0.0, 0.0, 0.0, 0.0, 1.71177964290422E9, 0.0, 2024-03-29 23:20:42.904
120.0, 12858.198625826673, 26866.528614345625, 19441.860251648457, 11685.536704723443, 30654.322284975326, 9833.717028345709, 15142.278688225591, 12083.598921728006, 0.024, -0.044, 1.018, 192.0, 0.0, 0.0, 0.0, 0.0, 0.0, 0.0, 0.0, 0.0, 0.0, 1.711779642909227E9, 0.0, 2024-03-29 23:20:42.909
121.0, 12831.711808647135, 26835.012654663642, 19399.660158116836, 11636.273459943946, 30614.133848444686, 9799.787080262551, 15114.227248934181, 12032.94986879228, 0.024, -0.044, 1.018, 192.0, 0.0, 0.0, 0.0, 0.0, 0.0, 0.0, 0.0, 0.0, 0.0, 1.711779642912202E9, 0.0, 2024-03-29 23:20:42.912
122.0, 12741.030781391953, 26744.77866229757, 19478.38300208843, 11612.58061082132, 30624.370947405216, 9789.192353390736, 15273.997518300715, 12052.977031824235, 0.014, -0.046, 1.02, 192.0, 0.0, 112.0, 254.0, 144.0, 31.0, 224.0, 0.0, 0.0, 0.0, 1.711779642915154E9, 0.0, 2024-03-29 23:20:42.915
123.0, 12756.833464721854, 26751.752406567623, 19522.10301424301, 11675.768992396474, 30660.737235634, 9819.143690960847, 15344.427865079388, 12129.554108328119, 0.014, -0.046, 1.02, 192.0, 0.0, 0.0, 0.0, 0.0, 0.0, 0.0, 0.0, 0.0, 0.0, 1.711779642920237E9, 0.0, 2024-03-29 23:20:42.920
124.0, 12860.50085550557, 26857.520861330137, 19460.881586179923, 11698.768937440986, 30635.25624695495, 9825.223365452692, 15172.878226384906, 12097.233485845743, 0.014, -0.046, 1.02, 192.0, 0.0, 0.0, 0.0, 0.0, 0.0, 0.0, 0.0, 0.0, 0.0, 1.711779642924315E9, 0.0, 2024-03-29 23:20:42.924
125.0, 12841.25600352955, 26834.78913721909, 19382.829294541993, 11636.184052966126, 30578.929850927576, 9785.884295211352, 15087.203989887714, 12023.964467521248, 0.014, -0.046, 1.02, 192.0, 0.0, 0.0, 0.0, 0.0, 0.0, 0.0, 0.0, 0.0, 0.0, 1.711779642928414E9, 0.0, 2024-03-29 23:20:42.928
126.0, 12740.583746502847, 26746.56680185399, 19436.115853323445, 11600.354206604268, 30612.01043272143, 9779.804620719508, 15227.304724133579, 12031.00526702467, 0.014, -0.046, 1.02, 192.0, 0.0, 0.0, 0.0, 0.0, 0.0, 0.0, 0.0, 0.0, 0.0, 1.711779642932247E9, 0.0, 2024-03-29 23:20:42.932
127.0, 12719.461347992581, 26728.372481867373, 19489.536522571627, 11651.651460129198, 30701.842093687308, 9833.538214390066, 15340.091626655058, 12111.404491830408, 0.014, -0.046, 1.02, 192.0, 0.0, 0.0, 0.0, 0.0, 0.0, 0.0, 0.0, 0.0, 0.0, 1.711779642937409E9, 0.0, 2024-03-29 23:20:42.937
128.0, 12736.09104586733, 26805.463648493725, 19466.670687993847, 11653.573710152354, 30601.594519805258, 9812.438167624256, 15179.583749721498, 12073.987671612225, 0.014, -0.046, 1.02, 192.0, 0.0, 0.0, 0.0, 0.0, 0.0, 0.0, 0.0, 0.0, 0.0, 1.71177964294048E9, 0.0, 2024-03-29 23:20:42.940
129.0, 12840.45134072916, 26842.701654756267, 19378.26953867311, 11641.414361168667, 30569.72093221199, 9778.17294337427, 15074.374088570368, 12026.646676855884, 0.014, -0.046, 1.02, 192.0, 0.0, 0.0, 0.0, 0.0, 0.0, 0.0, 0.0, 0.0, 0.0, 1.71177964294336E9, 0.0, 2024-03-29 23:20:42.943
130.0, 12830.862442357833, 26777.30045048004, 19410.567809411026, 11633.993582009505, 30593.324374356795, 9777.949425929717, 15215.771223994641, 12042.762284608161, 0.014, -0.046, 1.02, 192.0, 0.0, 0.0, 0.0, 0.0, 0.0, 0.0, 0.0, 0.0, 0.0, 1.711779642948352E9, 0.0, 2024-03-29 23:20:42.948
131.0, 12728.893784152722, 26707.56300777948, 19439.490966736194, 11636.96636402206, 30623.543932860368, 9791.874562725374, 15322.500803768731, 12086.39288978492, 0.014, -0.046, 1.02, 192.0, 0.0, 0.0, 0.0, 0.0, 0.0, 0.0, 0.0, 0.0, 0.0, 1.711779642952484E9, 0.0, 2024-03-29 23:20:42.952
132.0, 12810.567058392413, 26805.463648493725, 19470.33637408452, 11687.637768702241, 30645.426290682113, 9823.859909040917, 15227.528241578131, 12104.96718942728, 0.012, -0.052000000000000005, 1.024, 192.0, 0.0, 96.0, 254.0, 96.0, 32.0, 0.0, 0.0, 0.0, 0.0, 1.711779642956421E9, 0.0, 2024-03-29 23:20:42.956
133.0, 12844.988744853586, 26837.158422131353, 19418.0332920591, 11643.493073403011, 30595.49249356896, 9780.117545141882, 15068.853207689906, 12025.014999510646, 0.012, -0.052000000000000005, 1.024, 192.0, 0.0, 0.0, 0.0, 0.0, 0.0, 0.0, 0.0, 0.0, 0.0, 1.711779642960654E9, 0.0, 2024-03-29 23:20:42.960
134.0, 12770.803305006422, 26774.461778934216, 19438.21691730224, 11606.769157262941, 30603.85204599524, 9762.526722255556, 15176.253339797657, 12018.018903496135, 0.012, -0.052000000000000005, 1.024, 192.0, 0.0, 0.0, 0.0, 0.0, 0.0, 0.0, 0.0, 0.0, 0.0, 1.711779642964392E9, 0.0, 2024-03-29 23:20:42.964
135.0, 12719.394292759216, 26728.461888845195, 19476.594862532005, 11640.319125690357, 30650.634247140202, 9801.441109352245, 15334.816614963605, 12092.696081721317, 0.012, -0.052000000000000005, 1.024, 192.0, 0.0, 0.0, 0.0, 0.0, 0.0, 0.0, 0.0, 0.0, 0.0, 1.711779642968407E9, 0.0, 2024-03-29 23:20:42.968
136.0, 12779.341671388349, 26778.596851658447, 19494.09627844051, 11680.418155243178, 30623.543932860368, 9813.443996124744, 15266.241462974724, 12107.984674928746, 0.012, -0.052000000000000005, 1.024, 192.0, 0.0, 0.0, 0.0, 0.0, 0.0, 0.0, 0.0, 0.0, 0.0, 1.711779642971427E9, 0.0, 2024-03-29 23:20:42.971
137.0, 12866.64758523078, 26850.949448460276, 19416.02163505812, 11668.884655104239, 30590.66451676661, 9797.909533728307, 15094.781231258063, 12046.71854337675, 0.012, -0.052000000000000005, 1.024, 192.0, 0.0, 0.0, 0.0, 0.0, 0.0, 0.0, 0.0, 0.0, 0.0, 1.711779642975411E9, 0.0, 2024-03-29 23:20:42.975
138.0, 12795.993721007553, 26792.142008798364, 19405.806887842045, 11618.861451013261, 30612.077487954797, 9780.475173053166, 15152.024048808105, 12019.002380252168, 0.012, -0.052000000000000005, 1.024, 192.0, 0.0, 0.0, 0.0, 0.0, 0.0, 0.0, 0.0, 0.0, 0.0, 1.711779642980441E9, 0.0, 2024-03-29 23:20:42.980
139.0, 12717.539097969426, 26706.51247579008, 19473.24210086371, 11613.452328855077, 30630.718842830523, 9786.778364989563, 15300.059652335603, 12057.492084204208, 0.012, -0.052000000000000005, 1.024, 192.0, 0.0, 0.0, 0.0, 0.0, 0.0, 0.0, 0.0, 0.0, 0.0, 1.711779642984572E9, 0.0, 2024-03-29 23:20:42.984
140.0, 12721.808281160389, 26716.347243350418, 19444.94479238329, 11634.753541320986, 30590.463351066515, 9784.543190544033, 15261.033506516636, 12073.071250089557, 0.012, -0.052000000000000005, 1.024, 192.0, 0.0, 0.0, 0.0, 0.0, 0.0, 0.0, 0.0, 0.0, 0.0, 1.711779642988513E9, 0.0, 2024-03-29 23:20:42.988
141.0, 12849.392038511281, 26834.58797151899, 19408.131469265398, 11656.635899142731, 30569.184490345062, 9790.198181891225, 15108.03581572006, 12042.851691585982, 0.012, -0.052000000000000005, 1.024, 192.0, 0.0, 0.0, 0.0, 0.0, 0.0, 0.0, 0.0, 0.0, 0.0, 1.711779642992537E9, 0.0, 2024-03-29 23:20:42.992
142.0, 12819.485404430081, 26809.419907262316, 19417.049815303068, 11624.20351793808, 30574.6159642477, 9770.282777581546, 15136.623696878398, 12021.863403542447, 0.012, -0.052000000000000005, 1.024, 192.0, 0.0, 0.0, 0.0, 0.0, 0.0, 0.0, 0.0, 0.0, 0.0, 1.71177964299568E9, 0.0, 2024-03-29 23:20:42.995
143.0, 12719.595458459313, 26715.833153227944, 19470.694001995802, 11604.712796773052, 30590.172778388594, 9766.5053327686, 15294.047033077126, 12047.43379919932, 0.016, -0.054, 1.014, 192.0, 0.0, 128.0, 254.0, 80.0, 31.0, 176.0, 0.0, 0.0, 0.0, 1.711779642999548E9, 0.0, 2024-03-29 23:20:42.999
144.0, 12715.66155143518, 26714.53675204954, 19487.234292892732, 11638.620393111754, 30600.611043049223, 9777.860018951897, 15298.495030223732, 12088.270436319166, 0.016, -0.054, 1.014, 192.0, 0.0, 0.0, 0.0, 0.0, 0.0, 0.0, 0.0, 0.0, 0.0, 1.711779643003675E9, 0.0, 2024-03-29 23:20:43.003
145.0, 12795.256113440528, 26797.64053793437, 19377.80015203955, 11632.16073896417, 30576.605269504224, 9770.573350259465, 15094.200085902225, 12021.61753435344, 0.016, -0.054, 1.014, 192.0, 0.0, 0.0, 0.0, 0.0, 0.0, 0.0, 0.0, 0.0, 0.0, 1.711779643007579E9, 0.0, 2024-03-29 23:20:43.007
146.0, 12804.420328667204, 26799.272215279605, 19363.87501524389, 11603.505802572467, 30576.828786948776, 9773.121449127371, 15082.912454952295, 11992.448507839264, 0.016, -0.054, 1.014, 192.0, 0.0, 0.0, 0.0, 0.0, 0.0, 0.0, 0.0, 0.0, 0.0, 1.711779643012681E9, 0.0, 2024-03-29 23:20:43.012
147.0, 12721.674170693657, 26720.9069992193, 19434.14889981138, 11586.183200619604, 30606.042516951864, 9770.863922937384, 15246.996610998704, 12018.264772685145, 0.016, -0.054, 1.014, 192.0, 0.0, 0.0, 0.0, 0.0, 0.0, 0.0, 0.0, 0.0, 0.0, 1.711779643016661E9, 0.0, 2024-03-29 23:20:43.016
148.0, 12660.318632163839, 26682.797274923003, 19434.70769342276, 11607.082081685316, 30599.96284246002, 9754.480094251645, 15285.486314950744, 12057.492084204208, 0.016, -0.054, 1.014, 192.0, 0.0, 0.0, 0.0, 0.0, 0.0, 0.0, 0.0, 0.0, 0.0, 1.711779643019651E9, 0.0, 2024-03-29 23:20:43.019
149.0, 12791.366909905304, 26785.592947672958, 19416.93805658079, 11632.54071861991, 30572.62665899118, 9759.799809432008, 15114.830746034473, 12029.462996657252, 0.016, -0.054, 1.014, 192.0, 0.0, 0.0, 0.0, 0.0, 0.0, 0.0, 0.0, 0.0, 0.0, 1.711779643023645E9, 0.0, 2024-03-29 23:20:43.023
150.0, 12798.38535766427, 26793.371354743405, 19377.151951450345, 11599.393081592689, 30562.590725730744, 9733.245937019103, 15064.718134965675, 11983.731327501695, 0.016, -0.054, 1.014, 192.0, 0.0, 0.0, 0.0, 0.0, 0.0, 0.0, 0.0, 0.0, 0.0, 1.711779643027723E9, 0.0, 2024-03-29 23:20:43.027
151.0, 12702.98811232902, 26705.61840601187, 19413.22766700121, 11568.502970755455, 30601.750982016445, 9721.533622924522, 15208.596314024488, 11989.743946760173, 0.016, -0.054, 1.014, 192.0, 0.0, 0.0, 0.0, 0.0, 0.0, 0.0, 0.0, 0.0, 0.0, 1.711779643031767E9, 0.0, 2024-03-29 23:20:43.031
